%OpenBCI Raw EXG Data
%Number of channels = 4
%Sample Rate = 200 Hz
%Board = OpenBCI_GUI$BoardGanglionNative
Sample Index, EXG Channel 0, EXG Channel 1, EXG Channel 2, EXG Channel 3, Accel Channel 0, Accel Channel 1, Accel Channel 2, Other, Other, Other, Other, Other, Timestamp, Marker Channel, Timestamp (Formatted)
0.0, 14.50707192812115, -1.123839936684817, -10.363262777216733, 49.136675567831844, 0.0, 0.0, 0.0, 0.0, 0.0, 0.0, 0.0, 0.0, 1.7434275224522226E9, 0.0, 2025-03-31 14:25:22.452
1.0, 74.90271631255746, 66.03728346759453, -78.82961126603186, 108.38043076591566, 0.0, 0.11200000531971455, 0.0, 0.0, 0.0, 0.0, 0.0, 0.0, 1.7434275224526105E9, 0.0, 2025-03-31 14:25:22.452
1.0, 81.97860702872276, 84.08230075379834, -83.54188521020114, 130.20648690732196, 0.0, 0.11200000531971455, 0.0, 0.0, 0.0, 0.0, 0.0, 0.0, 1.743427522452724E9, 0.0, 2025-03-31 14:25:22.452
2.0, 29.103901455178857, 16.992235448677093, -11.088803368620574, 67.53698334982619, 0.03200000151991844, 0.11200000531971455, 0.0, 0.0, 0.0, 0.0, 0.0, 0.0, 1.74342752248211E9, 0.0, 2025-03-31 14:25:22.482
2.0, 17.891681388020515, -3.0012697144411504, -18.261931483633816, 57.974059163127095, 0.03200000151991844, 0.11200000531971455, 0.0, 0.0, 0.0, 0.0, 0.0, 0.0, 1.7434275224821503E9, 0.0, 2025-03-31 14:25:22.482
3.0, 77.1503961859271, 65.79418997047469, -87.00877246912569, 114.55874549271539, 0.03200000151991844, 0.11200000531971455, 0.0, 0.0, 0.0, 0.0, 0.0, 0.0, 1.743427522482374E9, 0.0, 2025-03-31 14:25:22.482
3.0, 98.89043462835252, 86.74884942220524, -80.11987675074488, 130.18404750758782, 0.03200000151991844, 0.11200000531971455, 0.0, 0.0, 0.0, 0.0, 0.0, 0.0, 1.7434275224823983E9, 0.0, 2025-03-31 14:25:22.482
4.0, 36.845494363456964, 20.421723708044738, -9.151535191573203, 78.24431692296639, 0.03200000151991844, 0.11200000531971455, 0.0, 0.0, 0.0, 0.0, 0.0, 0.0, 1.7434275224834328E9, 0.0, 2025-03-31 14:25:22.483
4.0, 19.73919196613133, -1.5464486316777766, -15.232612519524992, 51.83314343588427, 0.03200000151991844, 0.11200000531971455, 0.0, 0.0, 0.0, 0.0, 0.0, 0.0, 1.7434275224834929E9, 0.0, 2025-03-31 14:25:22.483
5.0, 80.34801064804196, 63.239838300738484, -77.21023458521813, 109.56597905186936, 0.03200000151991844, 0.11200000531971455, 0.0, 0.0, 0.0, 0.0, 0.0, 0.0, 1.7434275224840477E9, 0.0, 2025-03-31 14:25:22.484
5.0, 89.23775284271687, 85.32768743904307, -75.85639080125839, 129.83997671166435, 0.03200000151991844, 0.11200000531971455, 0.0, 0.0, 0.0, 0.0, 0.0, 0.0, 1.7434275224840899E9, 0.0, 2025-03-31 14:25:22.484
6.0, 26.811342782340944, 20.836852603126317, -9.136575591750443, 70.55508261406794, 0.03200000151991844, 0.11200000531971455, 0.0, 0.0, 0.0, 0.0, 0.0, 0.0, 1.743427522512283E9, 0.0, 2025-03-31 14:25:22.512
6.0, 17.151181196793914, -2.825494416523725, -11.930280858650804, 50.62141585024074, 0.03200000151991844, 0.11200000531971455, 0.0, 0.0, 0.0, 0.0, 0.0, 0.0, 1.7434275225123549E9, 0.0, 2025-03-31 14:25:22.512
7.0, 82.94350121729076, 63.9018005928956, -76.32013839576393, 110.00354734668508, 0.03200000151991844, 0.11200000531971455, 0.0, 0.0, 0.0, 0.0, 0.0, 0.0, 1.743427522512808E9, 0.0, 2025-03-31 14:25:22.512
7.0, 92.0426778094843, 89.23962279269472, -79.15498256217688, 129.86989591130987, 0.03200000151991844, 0.11200000531971455, 0.0, 0.0, 0.0, 0.0, 0.0, 0.0, 1.7434275225128694E9, 0.0, 2025-03-31 14:25:22.512
8.0, 23.856821817345917, 17.657937640789896, -14.297637530602515, 68.77115033520386, 0.03200000151991844, 0.11200000531971455, 0.0, 0.0, 0.0, 0.0, 0.0, 0.0, 1.7434275225423687E9, 0.0, 2025-03-31 14:25:22.542
8.0, 16.56027700379491, -3.857706804294139, -12.274351654574275, 52.51006532786414, 0.03200000151991844, 0.11200000531971455, 0.0, 0.0, 0.0, 0.0, 0.0, 0.0, 1.7434275225424125E9, 0.0, 2025-03-31 14:25:22.542
9.0, 77.67398217972368, 65.10604837862775, -77.49820688180625, 110.71786823822185, 0.03200000151991844, 0.11200000531971455, 0.0, 0.0, 0.0, 0.0, 0.0, 0.0, 1.7434275225425646E9, 0.0, 2025-03-31 14:25:22.542
9.0, 86.79933807160705, 78.92497871490195, -77.5169063815847, 117.445948258508, 0.03200000151991844, 0.11200000531971455, 0.0, 0.0, 0.0, 0.0, 0.0, 0.0, 1.7434275225425916E9, 0.0, 2025-03-31 14:25:22.542
10.0, 29.04406305588782, 13.061600595247, -10.643755273893476, 72.33527499297634, 0.03200000151991844, 0.11200000531971455, 0.49600002355873585, 0.0, 0.0, 0.0, 0.0, 0.0, 1.7434275225430615E9, 0.0, 2025-03-31 14:25:22.543
10.0, 12.50622545182705, -3.8090881048701704, -13.67681413795799, 50.21376675507054, 0.03200000151991844, 0.11200000531971455, 0.49600002355873585, 0.0, 0.0, 0.0, 0.0, 0.0, 1.743427522543089E9, 0.0, 2025-03-31 14:25:22.543
11.0, 75.45996140595526, 62.60779520822689, -79.4466947587207, 105.9943745941855, 0.03200000151991844, 0.04800000227987766, 0.49600002355873585, 0.0, 0.0, 0.0, 0.0, 0.0, 1.7434275225440137E9, 0.0, 2025-03-31 14:25:22.544
11.0, 88.29529805388302, 80.62289329478517, -69.2180683799088, 132.28587128268555, 0.03200000151991844, 0.04800000227987766, 0.49600002355873585, 0.0, 0.0, 0.0, 0.0, 0.0, 1.743427522544043E9, 0.0, 2025-03-31 14:25:22.544
12.0, 19.855128864757717, 19.404470920097083, -5.7370065320283175, 66.70298565970734, 0.01600000075995922, 0.04800000227987766, 0.49600002355873585, 0.0, 0.0, 0.0, 0.0, 0.0, 1.7434275225723355E9, 0.0, 2025-03-31 14:25:22.572
12.0, 9.63772218581289, -5.589280483778566, -8.209080402739346, 44.36830312432721, 0.01600000075995922, 0.04800000227987766, 0.49600002355873585, 0.0, 0.0, 0.0, 0.0, 0.0, 1.7434275225724092E9, 0.0, 2025-03-31 14:25:22.572
13.0, 75.50858010537922, 58.42658705776557, -77.6665023798123, 99.51312797097489, 0.01600000075995922, 0.04800000227987766, 0.49600002355873585, 0.0, 0.0, 0.0, 0.0, 0.0, 1.743427522572652E9, 0.0, 2025-03-31 14:25:22.572
13.0, 86.50388597510755, 78.19943812349811, -72.03047314658761, 123.65792208490893, 0.01600000075995922, 0.04800000227987766, 0.49600002355873585, 0.0, 0.0, 0.0, 0.0, 0.0, 1.7434275225726936E9, 0.0, 2025-03-31 14:25:22.572
14.0, 25.984824892133474, 14.602439376991242, -3.425748359411955, 68.55049623781815, 0.01600000075995922, 0.04800000227987766, 0.49600002355873585, 0.0, 0.0, 0.0, 0.0, 0.0, 1.7434275226022353E9, 0.0, 2025-03-31 14:25:22.602
14.0, 13.755352037027478, -3.910065403673798, -7.65557520929724, 50.52043855143711, 0.01600000075995922, 0.04800000227987766, 0.49600002355873585, 0.0, 0.0, 0.0, 0.0, 0.0, 1.7434275226024244E9, 0.0, 2025-03-31 14:25:22.602
15.0, 73.61619072780013, 63.999037991743535, -70.34377826657146, 105.4034704011865, 0.01600000075995922, 0.04800000227987766, 0.49600002355873585, 0.0, 0.0, 0.0, 0.0, 0.0, 1.7434275226024816E9, 0.0, 2025-03-31 14:25:22.602
15.0, 85.31833768915385, 81.44193138508126, -70.19792216829956, 130.29250460630283, 0.01600000075995922, 0.04800000227987766, 0.49600002355873585, 0.0, 0.0, 0.0, 0.0, 0.0, 1.743427522602502E9, 0.0, 2025-03-31 14:25:22.602
16.0, 23.651127319782972, 15.941323561128229, -3.4070488596335053, 69.2348979297094, 0.01600000075995922, 0.04800000227987766, 0.49600002355873585, 0.0, 0.0, 0.0, 0.0, 0.0, 1.7434275226032214E9, 0.0, 2025-03-31 14:25:22.603
16.0, 22.52541743312031, -0.17764524789527059, -1.8699499778449535, 54.2678183070384, 0.01600000075995922, 0.04800000227987766, 0.49600002355873585, 0.0, 0.0, 0.0, 0.0, 0.0, 1.7434275226032465E9, 0.0, 2025-03-31 14:25:22.603
17.0, 75.25426690839231, 64.24213148886338, -70.77012686152011, 98.97084247739986, 0.01600000075995922, 0.04800000227987766, 0.49600002355873585, 0.0, 0.0, 0.0, 0.0, 0.0, 1.7434275226040292E9, 0.0, 2025-03-31 14:25:22.604
17.0, 92.30821070633829, 76.70347814122215, -67.04892640560865, 124.02817218052223, 0.01600000075995922, 0.04800000227987766, 0.49600002355873585, 0.0, 0.0, 0.0, 0.0, 0.0, 1.743427522604054E9, 0.0, 2025-03-31 14:25:22.604
18.0, 30.091235043480992, 15.784247762989253, 2.247679873369634, 67.96333194477484, 0.01600000075995922, 0.04800000227987766, 0.49600002355873585, 0.0, 0.0, 0.0, 0.0, 0.0, 1.7434275226321683E9, 0.0, 2025-03-31 14:25:22.632
18.0, 18.235752183943987, -5.607979983557016, 1.5744978813454509, 42.93592144129798, 0.01600000075995922, 0.04800000227987766, 0.49600002355873585, 0.0, 0.0, 0.0, 0.0, 0.0, 1.7434275226321974E9, 0.0, 2025-03-31 14:25:22.632
19.0, 79.4803538583219, 63.539030297193676, -64.13554434012622, 98.00220838887617, 0.01600000075995922, 0.04800000227987766, 0.49600002355873585, 0.0, 0.0, 0.0, 0.0, 0.0, 1.7434275226327028E9, 0.0, 2025-03-31 14:25:22.632
19.0, 91.97535961028188, 77.47015763213858, -61.390457772649825, 122.13578280294314, 0.01600000075995922, 0.04800000227987766, 0.49600002355873585, 0.0, 0.0, 0.0, 0.0, 0.0, 1.7434275226328912E9, 0.0, 2025-03-31 14:25:22.632
20.0, 30.25205074157566, 14.796914174687117, 9.398368588648736, 63.27349740033969, 0.01600000075995922, 0.04800000227987766, 0.7520000357180834, 0.0, 0.0, 0.0, 0.0, 0.0, 1.7434275226621249E9, 0.0, 2025-03-31 14:25:22.662
20.0, 19.641954567283392, -5.548141584265977, 3.2013543620705605, 43.859676730353385, 0.01600000075995922, 0.04800000227987766, 0.7520000357180834, 0.0, 0.0, 0.0, 0.0, 0.0, 1.7434275226621647E9, 0.0, 2025-03-31 14:25:22.662
21.0, 76.67542889155447, 57.72348586609587, -61.19598297495395, 105.30997290229425, 0.01600000075995922, 0.0800000037997961, 0.7520000357180834, 0.0, 0.0, 0.0, 0.0, 0.0, 1.7434275226624706E9, 0.0, 2025-03-31 14:25:22.662
21.0, 72.3670641425997, 74.32490176940337, -66.68989600986242, 116.90740266488865, 0.01600000075995922, 0.0800000037997961, 0.7520000357180834, 0.0, 0.0, 0.0, 0.0, 0.0, 1.7434275226625E9, 0.0, 2025-03-31 14:25:22.662
22.0, 27.204032277688384, 4.156898800749332, -1.5071796821430326, 69.08156203152612, 0.01600000075995922, 0.0800000037997961, 0.7520000357180834, 0.0, 0.0, 0.0, 0.0, 0.0, 1.7434275226630695E9, 0.0, 2025-03-31 14:25:22.663
22.0, 18.12729508522898, -10.813920721877366, -1.249126585200429, 36.4434551182203, 0.01600000075995922, 0.0800000037997961, 0.7520000357180834, 0.0, 0.0, 0.0, 0.0, 0.0, 1.743427522663106E9, 0.0, 2025-03-31 14:25:22.663
23.0, 76.7390071908012, 57.8618621644564, -66.94420920684934, 92.41853775503114, 0.01600000075995922, 0.0800000037997961, 0.7520000357180834, 0.0, 0.0, 0.0, 0.0, 0.0, 1.7434275226640153E9, 0.0, 2025-03-31 14:25:22.664
23.0, 80.2956520486623, 69.33587522851303, -62.92381675448269, 115.78543267818168, 0.01600000075995922, 0.0800000037997961, 0.7520000357180834, 0.0, 0.0, 0.0, 0.0, 0.0, 1.743427522664052E9, 0.0, 2025-03-31 14:25:22.664
24.0, 16.92678719945252, 2.167272024322301, 1.7128741797059774, 62.0842092144303, 0.01600000075995922, 0.0800000037997961, 0.7520000357180834, 0.0, 0.0, 0.0, 0.0, 0.0, 1.74342752269208E9, 0.0, 2025-03-31 14:25:22.692
24.0, 8.0781839042902, -14.800654074642807, -2.490773370489478, 32.80453246133402, 0.01600000075995922, 0.0800000037997961, 0.7520000357180834, 0.0, 0.0, 0.0, 0.0, 0.0, 1.7434275226921413E9, 0.0, 2025-03-31 14:25:22.692
25.0, 75.31784520763904, 53.18698721984401, -69.7753134733066, 97.0672333999537, 0.01600000075995922, 0.0800000037997961, 0.7520000357180834, 0.0, 0.0, 0.0, 0.0, 0.0, 1.7434275226926043E9, 0.0, 2025-03-31 14:25:22.692
25.0, 75.45996140595526, 68.09796834317967, -70.01466707047075, 117.25147346081212, 0.01600000075995922, 0.0800000037997961, 0.7520000357180834, 0.0, 0.0, 0.0, 0.0, 0.0, 1.7434275226926396E9, 0.0, 2025-03-31 14:25:22.692
26.0, 19.840169264934957, 10.66058482369408, -0.6395228924229741, 63.0117044034414, 0.01600000075995922, 0.0800000037997961, 0.7520000357180834, 0.0, 0.0, 0.0, 0.0, 0.0, 1.7434275227221105E9, 0.0, 2025-03-31 14:25:22.722
26.0, 11.29075796622783, -12.365979203488678, -4.936667941510677, 37.60656400443986, 0.01600000075995922, 0.0800000037997961, 0.7520000357180834, 0.0, 0.0, 0.0, 0.0, 0.0, 1.7434275227221525E9, 0.0, 2025-03-31 14:25:22.722
27.0, 68.52992678806186, 56.58281637961045, -71.64152355119586, 95.89290481386706, 0.01600000075995922, 0.0800000037997961, 0.7520000357180834, 0.0, 0.0, 0.0, 0.0, 0.0, 1.7434275227223847E9, 0.0, 2025-03-31 14:25:22.722
27.0, 84.40206220000982, 70.29328961716965, -72.58023844007403, 115.5909578804858, 0.01600000075995922, 0.0800000037997961, 0.7520000357180834, 0.0, 0.0, 0.0, 0.0, 0.0, 1.7434275227224152E9, 0.0, 2025-03-31 14:25:22.722
28.0, 18.51250478066504, 10.720423222985119, -4.41308194771409, 62.783570506144315, 0.01600000075995922, 0.0800000037997961, 0.7520000357180834, 0.0, 0.0, 0.0, 0.0, 0.0, 1.743427522723591E9, 0.0, 2025-03-31 14:25:22.723
28.0, 21.75873794220388, -6.22880337620154, -4.6075567454099655, 39.001546687912196, 0.01600000075995922, 0.0800000037997961, 0.7520000357180834, 0.0, 0.0, 0.0, 0.0, 0.0, 1.743427522723651E9, 0.0, 2025-03-31 14:25:22.723
29.0, 75.54223920498043, 57.48787216888741, -65.31361282616854, 89.46027689008042, 0.01600000075995922, 0.0800000037997961, 0.7520000357180834, 0.0, 0.0, 0.0, 0.0, 0.0, 1.7434275227241168E9, 0.0, 2025-03-31 14:25:22.724
29.0, 79.62247005663812, 78.11342042451724, -69.26668707933277, 115.26558658434078, 0.01600000075995922, 0.0800000037997961, 0.7520000357180834, 0.0, 0.0, 0.0, 0.0, 0.0, 1.7434275227241535E9, 0.0, 2025-03-31 14:25:22.724
30.0, 22.431919934228063, 11.917191208805889, -10.0790303805843, 63.86814149329439, 0.01600000075995922, 0.0800000037997961, 0.8640000410377979, 0.0, 0.0, 0.0, 0.0, 0.0, 1.7434275227521143E9, 0.0, 2025-03-31 14:25:22.752
30.0, 9.342270089313388, -3.41265870956704, -8.575590598396957, 44.716113820206374, 0.01600000075995922, 0.0800000037997961, 0.8640000410377979, 0.0, 0.0, 0.0, 0.0, 0.0, 1.7434275227521622E9, 0.0, 2025-03-31 14:25:22.752
31.0, 78.32846467196941, 68.88708723383024, -77.43462858255953, 95.11874552303925, 0.01600000075995922, 0.09600000455975533, 0.8640000410377979, 0.0, 0.0, 0.0, 0.0, 0.0, 1.7434275227527127E9, 0.0, 2025-03-31 14:25:22.752
31.0, 90.4494804283604, 77.66837232979015, -78.97172746434808, 118.49686014605686, 0.01600000075995922, 0.09600000455975533, 0.8640000410377979, 0.0, 0.0, 0.0, 0.0, 0.0, 1.7434275227527468E9, 0.0, 2025-03-31 14:25:22.752
32.0, 25.442539398558438, 11.49832241376862, -11.417914564721286, 62.60031540831551, 0.01600000075995922, 0.09600000455975533, 0.8640000410377979, 0.0, 0.0, 0.0, 0.0, 0.0, 1.7434275227823098E9, 0.0, 2025-03-31 14:25:22.782
32.0, 15.397168117575347, -8.124932653736323, -18.258191583678126, 40.40026927134022, 0.01600000075995922, 0.09600000455975533, 0.8640000410377979, 0.0, 0.0, 0.0, 0.0, 0.0, 1.7434275227823472E9, 0.0, 2025-03-31 14:25:22.782
33.0, 79.8880029534921, 55.7114196899347, -84.06173130404204, 101.38681784877554, 0.01600000075995922, 0.09600000455975533, 0.8640000410377979, 0.0, 0.0, 0.0, 0.0, 0.0, 1.7434275227824347E9, 0.0, 2025-03-31 14:25:22.782
33.0, 82.25535962544382, 72.63446698943153, -77.8497574776411, 123.9271948817186, 0.01600000075995922, 0.09600000455975533, 0.8640000410377979, 0.0, 0.0, 0.0, 0.0, 0.0, 1.7434275227824693E9, 0.0, 2025-03-31 14:25:22.782
34.0, 24.870334705337882, 18.693889928516, -14.989519022405148, 70.15491331880912, 0.01600000075995922, 0.09600000455975533, 0.8640000410377979, 0.0, 0.0, 0.0, 0.0, 0.0, 1.7434275227831678E9, 0.0, 2025-03-31 14:25:22.783
34.0, 16.799630600959063, -0.7461100411601365, -13.598276238888502, 51.25719884270802, 0.01600000075995922, 0.09600000455975533, 0.8640000410377979, 0.0, 0.0, 0.0, 0.0, 0.0, 1.7434275227831917E9, 0.0, 2025-03-31 14:25:22.783
35.0, 82.0010464284569, 66.62070786068216, -86.1149363797158, 105.91583669511601, 0.01600000075995922, 0.09600000455975533, 0.8640000410377979, 0.0, 0.0, 0.0, 0.0, 0.0, 1.7434275227838917E9, 0.0, 2025-03-31 14:25:22.783
35.0, 84.25246620178223, 79.58694100705907, -83.72140040807426, 123.85239688260481, 0.01600000075995922, 0.09600000455975533, 0.8640000410377979, 0.0, 0.0, 0.0, 0.0, 0.0, 1.74342752278392E9, 0.0, 2025-03-31 14:25:22.783
36.0, 20.816283153370023, 16.218076157849282, -14.955859922803938, 62.405840610619634, 0.01600000075995922, 0.09600000455975533, 0.8640000410377979, 0.0, 0.0, 0.0, 0.0, 0.0, 1.743427522812147E9, 0.0, 2025-03-31 14:25:22.812
36.0, 15.221392819657922, 1.0714813373051584, -18.587302779778838, 47.857629782985896, 0.01600000075995922, 0.09600000455975533, 0.8640000410377979, 0.0, 0.0, 0.0, 0.0, 0.0, 1.7434275228121912E9, 0.0, 2025-03-31 14:25:22.812
37.0, 77.73756047897041, 62.60031540831551, -81.93746812921017, 105.13793750433251, 0.01600000075995922, 0.09600000455975533, 0.8640000410377979, 0.0, 0.0, 0.0, 0.0, 0.0, 1.7434275228125677E9, 0.0, 2025-03-31 14:25:22.812
37.0, 82.16560202650726, 76.7932357401587, -80.19467474985868, 120.41916872328147, 0.01600000075995922, 0.09600000455975533, 0.8640000410377979, 0.0, 0.0, 0.0, 0.0, 0.0, 1.7434275228125968E9, 0.0, 2025-03-31 14:25:22.812
38.0, 23.75958441849798, 12.867125797551125, -10.984086169861257, 63.89058089302853, 0.01600000075995922, 0.09600000455975533, 0.8640000410377979, 0.0, 0.0, 0.0, 0.0, 0.0, 1.7434275228420224E9, 0.0, 2025-03-31 14:25:22.842
38.0, 18.95381297543645, -2.5599615196697414, -18.650881079025567, 44.667495120782405, 0.01600000075995922, 0.09600000455975533, 0.8640000410377979, 0.0, 0.0, 0.0, 0.0, 0.0, 1.7434275228420959E9, 0.0, 2025-03-31 14:25:22.842
39.0, 81.2605462372303, 63.39691409887746, -82.35259702429175, 96.79048080323264, 0.01600000075995922, 0.09600000455975533, 0.8640000410377979, 0.0, 0.0, 0.0, 0.0, 0.0, 1.7434275228424504E9, 0.0, 2025-03-31 14:25:22.842
39.0, 82.06088482774794, 81.44193138508126, -75.57215840462595, 113.4405154059641, 0.01600000075995922, 0.09600000455975533, 0.8640000410377979, 0.0, 0.0, 0.0, 0.0, 0.0, 1.7434275228424883E9, 0.0, 2025-03-31 14:25:22.842
40.0, 24.98253170400858, 10.597006524447352, -13.022331645712256, 58.14609456108883, 0.01600000075995922, 0.09600000455975533, 0.9280000440776348, 0.0, 0.0, 0.0, 0.0, 0.0, 1.7434275228432956E9, 0.0, 2025-03-31 14:25:22.843
40.0, 15.131635220721364, -6.520515572745353, -14.271458230912685, 30.71766828605905, 0.01600000075995922, 0.09600000455975533, 0.9280000440776348, 0.0, 0.0, 0.0, 0.0, 0.0, 1.7434275228433337E9, 0.0, 2025-03-31 14:25:22.843
41.0, 74.98125421162695, 61.89347431669012, -75.16824920941144, 86.09062703000382, 0.01600000075995922, 0.09600000455975533, 0.9280000440776348, 0.0, 0.0, 0.0, 0.0, 0.0, 1.743427522844379E9, 0.0, 2025-03-31 14:25:22.844
41.0, 80.6285031447187, 81.99917647847906, -75.71801450289786, 113.78084630193189, 0.01600000075995922, 0.09600000455975533, 0.9280000440776348, 0.0, 0.0, 0.0, 0.0, 0.0, 1.743427522844434E9, 0.0, 2025-03-31 14:25:22.844
42.0, 22.211265836842358, 8.528841848950833, -4.802031543105841, 52.685840625781566, 0.03200000151991844, 0.09600000455975533, 0.9280000440776348, 0.0, 0.0, 0.0, 0.0, 0.0, 1.74342752287225E9, 0.0, 2025-03-31 14:25:22.872
42.0, 13.863809135742486, -3.3229011106304824, -11.171081167645752, 40.50124657014385, 0.03200000151991844, 0.09600000455975533, 0.9280000440776348, 0.0, 0.0, 0.0, 0.0, 0.0, 1.7434275228723269E9, 0.0, 2025-03-31 14:25:22.872
43.0, 76.4061560947448, 63.84196219360456, -74.31181211955845, 91.62941886438057, 0.03200000151991844, 0.09600000455975533, 0.9280000440776348, 0.0, 0.0, 0.0, 0.0, 0.0, 1.7434275228726313E9, 0.0, 2025-03-31 14:25:22.872
43.0, 83.4857867108658, 76.10135424835607, -69.01985368225724, 117.25521336076781, 0.03200000151991844, 0.09600000455975533, 0.9280000440776348, 0.0, 0.0, 0.0, 0.0, 0.0, 1.7434275228726623E9, 0.0, 2025-03-31 14:25:22.872
44.0, 15.370988817885518, 9.265602140221745, -7.468580211512744, 52.06127733318135, 0.03200000151991844, 0.09600000455975533, 0.9280000440776348, 0.0, 0.0, 0.0, 0.0, 0.0, 1.7434275229022093E9, 0.0, 2025-03-31 14:25:22.902
44.0, 10.277245078235865, -9.246902640443295, -11.100023068487644, 36.78752591414377, 0.03200000151991844, 0.09600000455975533, 0.9280000440776348, 0.0, 0.0, 0.0, 0.0, 0.0, 1.7434275229022543E9, 0.0, 2025-03-31 14:25:22.902
45.0, 73.06642543431371, 57.132581673096865, -71.62282405141741, 91.88747196132317, 0.03200000151991844, 0.09600000455975533, 0.9280000440776348, 0.0, 0.0, 0.0, 0.0, 0.0, 1.7434275229023829E9, 0.0, 2025-03-31 14:25:22.902
45.0, 77.43462858255953, 75.35711415717378, -69.1058713812381, 108.67962276237085, 0.03200000151991844, 0.09600000455975533, 0.9280000440776348, 0.0, 0.0, 0.0, 0.0, 0.0, 1.7434275229024312E9, 0.0, 2025-03-31 14:25:22.902
46.0, 11.922801058739424, 8.756975746247917, 0.5722046932205558, 58.46772595727816, 0.03200000151991844, 0.09600000455975533, 0.9280000440776348, 0.0, 0.0, 0.0, 0.0, 0.0, 1.7434275229031804E9, 0.0, 2025-03-31 14:25:22.903
46.0, 11.560030763037503, -3.5323355081491172, -12.955013446509838, 39.865463577676564, 0.03200000151991844, 0.09600000455975533, 0.9280000440776348, 0.0, 0.0, 0.0, 0.0, 0.0, 1.7434275229032164E9, 0.0, 2025-03-31 14:25:22.903
47.0, 80.07125805132091, 68.2363446415402, -72.43438234180212, 96.52120800642297, 0.03200000151991844, 0.09600000455975533, 0.9280000440776348, 0.0, 0.0, 0.0, 0.0, 0.0, 1.743427522904027E9, 0.0, 2025-03-31 14:25:22.904
47.0, 86.38046927656978, 77.79178902832791, -68.30927269067615, 112.64017681544647, 0.03200000151991844, 0.09600000455975533, 0.9280000440776348, 0.0, 0.0, 0.0, 0.0, 0.0, 1.743427522904068E9, 0.0, 2025-03-31 14:25:22.904
48.0, 27.899653669446707, 10.017322031315416, 3.500546358525753, 59.185786748770624, 0.03200000151991844, 0.09600000455975533, 0.9280000440776348, 0.0, 0.0, 0.0, 0.0, 0.0, 1.743427522932156E9, 0.0, 2025-03-31 14:25:22.932
48.0, 19.133328173309565, -3.2294036117382348, -1.084570987150073, 37.56168520497158, 0.03200000151991844, 0.09600000455975533, 0.9280000440776348, 0.0, 0.0, 0.0, 0.0, 0.0, 1.7434275229321933E9, 0.0, 2025-03-31 14:25:22.932
49.0, 82.41617532353848, 71.31802220502868, -62.7704808562994, 102.38537113694474, 0.03200000151991844, 0.09600000455975533, 0.9280000440776348, 0.0, 0.0, 0.0, 0.0, 0.0, 1.7434275229333274E9, 0.0, 2025-03-31 14:25:22.933
49.0, 83.42220841161907, 81.29233538685367, -58.3985378080979, 114.49890709342435, 0.03200000151991844, 0.09600000455975533, 0.9280000440776348, 0.0, 0.0, 0.0, 0.0, 0.0, 1.7434275229333856E9, 0.0, 2025-03-31 14:25:22.933
50.0, 21.69515964295715, 11.763855310622603, 7.191827614791691, 55.76003838935867, 0.03200000151991844, 0.09600000455975533, 0.9280000440776348, 0.0, 0.0, 0.0, 0.0, 0.0, 1.74342752296227E9, 0.0, 2025-03-31 14:25:22.962
50.0, 16.53409770410508, -4.411211997736245, -2.1018237750977278, 34.92131583625451, 0.03200000151991844, 0.09600000455975533, 0.9280000440776348, 0.0, 0.0, 0.0, 0.0, 0.0, 1.7434275229623404E9, 0.0, 2025-03-31 14:25:22.962
51.0, 82.3002384249121, 65.33044237596914, -62.87893795501441, 100.86697175493464, 0.03200000151991844, 0.09600000455975533, 0.9280000440776348, 0.0, 0.0, 0.0, 0.0, 0.0, 1.7434275229625132E9, 0.0, 2025-03-31 14:25:22.962
51.0, 78.98668706417084, 79.6093804067932, -54.980269248597324, 115.06363198673353, 0.03200000151991844, 0.09600000455975533, 0.9280000440776348, 0.0, 0.0, 0.0, 0.0, 0.0, 1.743427522962572E9, 0.0, 2025-03-31 14:25:22.962
52.0, 21.119215049780905, 9.807887633796781, 8.152981903403997, 54.24537890730426, 0.03200000151991844, 0.09600000455975533, 0.9280000440776348, 0.0, 0.0, 0.0, 0.0, 0.0, 1.7434275229631517E9, 0.0, 2025-03-31 14:25:22.963
52.0, 14.428534029051661, -5.196590988431126, 3.21257406193763, 29.752774097491056, 0.03200000151991844, 0.09600000455975533, 0.9280000440776348, 0.0, 0.0, 0.0, 0.0, 0.0, 1.7434275229632187E9, 0.0, 2025-03-31 14:25:22.963
53.0, 77.67398217972368, 66.52347046183422, -64.9957213299349, 91.30030766827986, 0.03200000151991844, 0.09600000455975533, 0.9280000440776348, 0.0, 0.0, 0.0, 0.0, 0.0, 1.7434275229644895E9, 0.0, 2025-03-31 14:25:22.964
53.0, 81.50363973435014, 83.03512876620516, -56.68192372843623, 109.22564815590158, 0.03200000151991844, 0.09600000455975533, 0.9280000440776348, 0.0, 0.0, 0.0, 0.0, 0.0, 1.7434275229645596E9, 0.0, 2025-03-31 14:25:22.964
54.0, 18.673320478759706, 11.991989207919687, 9.211373590864241, 51.39183524111286, 0.03200000151991844, 0.09600000455975533, 0.9280000440776348, 0.0, 0.0, 0.0, 0.0, 0.0, 1.7434275229920816E9, 0.0, 2025-03-31 14:25:22.992
54.0, 12.423947652801871, -3.9699038029648364, 3.777298955246806, 35.22424773266539, 0.03200000151991844, 0.09600000455975533, 0.9280000440776348, 0.0, 0.0, 0.0, 0.0, 0.0, 1.7434275229921544E9, 0.0, 2025-03-31 14:25:22.992
55.0, 71.52932655252516, 58.43780675763264, -67.90910339541733, 92.62423225259408, 0.03200000151991844, 0.09600000455975533, 0.9280000440776348, 0.0, 0.0, 0.0, 0.0, 0.0, 1.7434275229926987E9, 0.0, 2025-03-31 14:25:22.992
55.0, 78.00309337582439, 74.66897256532684, -65.65020382218063, 109.64451695093885, 0.03200000151991844, 0.09600000455975533, 0.9280000440776348, 0.0, 0.0, 0.0, 0.0, 0.0, 1.743427522992864E9, 0.0, 2025-03-31 14:25:22.992
56.0, 20.46099265757948, 6.094166977796704, 2.1841015741229057, 47.73795298440382, 0.03200000151991844, 0.09600000455975533, 0.9280000440776348, 0.0, 0.0, 0.0, 0.0, 0.0, 1.743427523024721E9, 0.0, 2025-03-31 14:25:23.024
56.0, 11.892881859093904, -7.1824778649024665, -8.04452480468899, 32.576398564036936, 0.03200000151991844, 0.09600000455975533, 0.9280000440776348, 0.0, 0.0, 0.0, 0.0, 0.0, 1.7434275230247993E9, 0.0, 2025-03-31 14:25:23.024
57.0, 78.57155816908926, 55.105555897112936, -65.87459781952202, 93.17025764612481, 0.03200000151991844, 0.09600000455975533, 0.9280000440776348, 0.0, 0.0, 0.0, 0.0, 0.0, 1.7434275230249913E9, 0.0, 2025-03-31 14:25:23.024
57.0, 83.1117967152968, 65.18084637774155, -67.96894179470837, 107.18740268005058, 0.03200000151991844, 0.09600000455975533, 0.9280000440776348, 0.0, 0.0, 0.0, 0.0, 0.0, 1.7434275230250473E9, 0.0, 2025-03-31 14:25:23.025
58.0, 18.748118477873504, 6.382139274384826, -3.459407459013164, 49.42464786441997, 0.03200000151991844, 0.09600000455975533, 0.9280000440776348, 0.0, 0.0, 0.0, 0.0, 0.0, 1.7434275230252376E9, 0.0, 2025-03-31 14:25:23.025
58.0, 19.888787964358926, 0.20008464762941003, -6.612143121659756, 37.89827620098367, 0.03200000151991844, 0.09600000455975533, 0.9280000440776348, 0.0, 0.0, 0.0, 0.0, 0.0, 1.7434275230252984E9, 0.0, 2025-03-31 14:25:23.025
59.0, 83.53814531024545, 64.35058858757839, -66.11769131664187, 92.92342424904928, 0.03200000151991844, 0.09600000455975533, 0.9280000440776348, 0.0, 0.0, 0.0, 0.0, 0.0, 1.7434275230264049E9, 0.0, 2025-03-31 14:25:23.026
59.0, 88.90116184670478, 83.08748736558482, -59.65140429325402, 115.45632148208097, 0.03200000151991844, 0.09600000455975533, 0.9280000440776348, 0.0, 0.0, 0.0, 0.0, 0.0, 1.74342752302646E9, 0.0, 2025-03-31 14:25:23.026
60.0, 26.09702189080417, 11.977029608096927, 2.0270257759839296, 59.73555204225704, 0.03200000151991844, 0.09600000455975533, 0.9600000455975533, 0.0, 0.0, 0.0, 0.0, 0.0, 1.7434275230528116E9, 0.0, 2025-03-31 14:25:23.052
60.0, 23.972758715972304, 5.256429387722164, -4.787071943283081, 32.86437086062506, 0.03200000151991844, 0.09600000455975533, 0.9600000455975533, 0.0, 0.0, 0.0, 0.0, 0.0, 1.7434275230529113E9, 0.0, 2025-03-31 14:25:23.052
61.0, 86.35802987683564, 69.05538273183629, -74.05749892257154, 100.91559045435861, 0.03200000151991844, 0.09600000455975533, 0.9600000455975533, 0.0, 0.0, 0.0, 0.0, 0.0, 1.7434275230529785E9, 0.0, 2025-03-31 14:25:23.052
61.0, 84.60027689766139, 85.12199294148013, -64.49083483591676, 123.04457849217579, 0.03200000151991844, 0.09600000455975533, 0.9600000455975533, 0.0, 0.0, 0.0, 0.0, 0.0, 1.7434275230530126E9, 0.0, 2025-03-31 14:25:23.053
62.0, 25.977345092222095, 14.385525179561228, 3.695021156221628, 52.97381292236969, 0.03200000151991844, 0.09600000455975533, 0.9600000455975533, 0.0, 0.0, 0.0, 0.0, 0.0, 1.7434275230823977E9, 0.0, 2025-03-31 14:25:23.082
62.0, 18.16095418483019, 5.181631388608366, -4.671135044656694, 39.96644087648019, 0.03200000151991844, 0.09600000455975533, 0.9600000455975533, 0.0, 0.0, 0.0, 0.0, 0.0, 1.7434275230824566E9, 0.0, 2025-03-31 14:25:23.082
63.0, 79.18864166177809, 70.03149662027135, -70.35499796643853, 99.00076167704538, 0.03200000151991844, 0.09600000455975533, 0.9600000455975533, 0.0, 0.0, 0.0, 0.0, 0.0, 1.7434275230827804E9, 0.0, 2025-03-31 14:25:23.082
63.0, 85.06028459221125, 78.73798371711746, -70.37743736617267, 116.20430147321895, 0.03200000151991844, 0.09600000455975533, 0.9600000455975533, 0.0, 0.0, 0.0, 0.0, 0.0, 1.7434275230828323E9, 0.0, 2025-03-31 14:25:23.082
64.0, 21.36978834681213, 11.733936110977083, -0.8975759893655777, 57.80202376516536, 0.03200000151991844, 0.09600000455975533, 0.9600000455975533, 0.0, 0.0, 0.0, 0.0, 0.0, 1.743427523083331E9, 0.0, 2025-03-31 14:25:23.083
64.0, 11.141161968000233, -1.2285571354441345, -14.024624833837152, 38.9641476883553, 0.03200000151991844, 0.09600000455975533, 0.9600000455975533, 0.0, 0.0, 0.0, 0.0, 0.0, 1.743427523083377E9, 0.0, 2025-03-31 14:25:23.083
65.0, 70.00344737060368, 66.69550585979596, -76.7764061903581, 94.47922263061628, 0.03200000151991844, 0.09600000455975533, 0.9600000455975533, 0.0, 0.0, 0.0, 0.0, 0.0, 1.743427523084008E9, 0.0, 2025-03-31 14:25:23.084
65.0, 80.39662934746593, 80.04320880165324, -73.52643312886357, 107.42675627721474, 0.03200000151991844, 0.09600000455975533, 0.9600000455975533, 0.0, 0.0, 0.0, 0.0, 0.0, 1.7434275230840733E9, 0.0, 2025-03-31 14:25:23.084
66.0, 23.34071562346071, 18.024447836447507, -1.2528664851561189, 61.44468632200733, 0.03200000151991844, 0.09600000455975533, 0.9600000455975533, 0.0, 0.0, 0.0, 0.0, 0.0, 1.743427523112088E9, 0.0, 2025-03-31 14:25:23.112
66.0, 12.88395534735173, 0.37212004559114575, -10.4492804761976, 37.52428620541468, 0.03200000151991844, 0.09600000455975533, 0.9600000455975533, 0.0, 0.0, 0.0, 0.0, 0.0, 1.7434275231121345E9, 0.0, 2025-03-31 14:25:23.112
67.0, 78.05545197520405, 62.84340890543535, -77.15787598583847, 97.3252864968963, 0.03200000151991844, 0.09600000455975533, 0.9600000455975533, 0.0, 0.0, 0.0, 0.0, 0.0, 1.7434275231128144E9, 0.0, 2025-03-31 14:25:23.112
67.0, 84.12530960328877, 76.03403604915366, -67.82308569643646, 114.47646769369021, 0.03200000151991844, 0.09600000455975533, 0.9600000455975533, 0.0, 0.0, 0.0, 0.0, 0.0, 1.743427523112851E9, 0.0, 2025-03-31 14:25:23.112
68.0, 19.488618669100106, 10.873759121168405, -2.2663793731480837, 54.18928040796891, 0.03200000151991844, 0.09600000455975533, 0.9600000455975533, 0.0, 0.0, 0.0, 0.0, 0.0, 1.743427523142098E9, 0.0, 2025-03-31 14:25:23.142
68.0, 17.31573679484427, 1.2397768353112042, -11.051404369063675, 40.88645626557991, 0.03200000151991844, 0.09600000455975533, 0.9600000455975533, 0.0, 0.0, 0.0, 0.0, 0.0, 1.7434275231421628E9, 0.0, 2025-03-31 14:25:23.142
69.0, 77.28129268437624, 67.5295035499148, -80.59110414516181, 99.47946887137368, 0.03200000151991844, 0.09600000455975533, 0.9600000455975533, 0.0, 0.0, 0.0, 0.0, 0.0, 1.7434275231427155E9, 0.0, 2025-03-31 14:25:23.142
69.0, 84.33100410085171, 76.02655624924228, -70.4036166658625, 109.93996904743835, 0.03200000151991844, 0.09600000455975533, 0.9600000455975533, 0.0, 0.0, 0.0, 0.0, 0.0, 1.7434275231427553E9, 0.0, 2025-03-31 14:25:23.142
70.0, 24.380407811142504, 14.935290473047644, -0.34407079592347145, 55.21775289578363, 0.03200000151991844, 0.09600000455975533, 0.9760000463575125, 0.0, 0.0, 0.0, 0.0, 0.0, 1.7434275231721296E9, 0.0, 2025-03-31 14:25:23.172
70.0, 20.834982653148472, 0.9293651389889419, -9.66016158554703, 34.27057324396446, 0.03200000151991844, 0.09600000455975533, 0.9760000463575125, 0.0, 0.0, 0.0, 0.0, 0.0, 1.7434275231721992E9, 0.0, 2025-03-31 14:25:23.172
71.0, 81.13712953869253, 66.46363206254318, -75.1121507100761, 92.987002548296, 0.03200000151991844, 0.09600000455975533, 0.9760000463575125, 0.0, 0.0, 0.0, 0.0, 0.0, 1.7434275231723607E9, 0.0, 2025-03-31 14:25:23.172
71.0, 77.75252007879317, 78.07976132491603, -70.8112657610327, 102.48260853579268, 0.03200000151991844, 0.09600000455975533, 0.9760000463575125, 0.0, 0.0, 0.0, 0.0, 0.0, 1.7434275231723871E9, 0.0, 2025-03-31 14:25:23.172
72.0, 19.944886463694274, 12.882085397373885, -5.61732973344624, 48.62056937394664, 0.03200000151991844, 0.09600000455975533, 0.9760000463575125, 0.0, 0.0, 0.0, 0.0, 0.0, 1.7434275231730828E9, 0.0, 2025-03-31 14:25:23.173
72.0, 19.65691416710615, -2.257029623258859, -8.366156200878322, 28.967395106796175, 0.03200000151991844, 0.09600000455975533, 0.9760000463575125, 0.0, 0.0, 0.0, 0.0, 0.0, 1.743427523173123E9, 0.0, 2025-03-31 14:25:23.173
73.0, 74.53246621694416, 71.09736810764298, -76.05460549890995, 94.75971512729302, 0.03200000151991844, 0.09600000455975533, 0.9760000463575125, 0.0, 0.0, 0.0, 0.0, 0.0, 1.7434275231739087E9, 0.0, 2025-03-31 14:25:23.173
73.0, 81.63453623279929, 83.18846466438845, -68.88147738389671, 110.58323183981702, 0.03200000151991844, 0.09600000455975533, 0.9760000463575125, 0.0, 0.0, 0.0, 0.0, 0.0, 1.7434275231739483E9, 0.0, 2025-03-31 14:25:23.173
74.0, 19.245525171980262, 16.842639450449497, -2.9507810650393367, 47.71925348462537, 0.03200000151991844, 0.09600000455975533, 0.9760000463575125, 0.0, 0.0, 0.0, 0.0, 0.0, 1.7434275231747432E9, 0.0, 2025-03-31 14:25:23.174
74.0, 15.109195820987225, 5.379846086259931, -12.027518257498741, 25.777260444592685, 0.03200000151991844, 0.09600000455975533, 0.9760000463575125, 0.0, 0.0, 0.0, 0.0, 0.0, 1.7434275231747823E9, 0.0, 2025-03-31 14:25:23.174
75.0, 87.24438616633415, 75.34589445730671, -72.86821073666215, 85.80639463337138, 0.03200000151991844, 0.09600000455975533, 0.9760000463575125, 0.0, 0.0, 0.0, 0.0, 0.0, 1.7434275232021816E9, 0.0, 2025-03-31 14:25:23.202
75.0, 80.46394754666835, 78.54724881937727, -81.4475412350148, 106.98170818248764, 0.03200000151991844, 0.09600000455975533, 0.9760000463575125, 0.0, 0.0, 0.0, 0.0, 0.0, 1.7434275232022293E9, 0.0, 2025-03-31 14:25:23.202
76.0, 18.09737588558346, 21.248241598252207, -9.24877259042114, 43.19771443819627, 0.03200000151991844, 0.09600000455975533, 0.9760000463575125, 0.0, 0.0, 0.0, 0.0, 0.0, 1.7434275232025263E9, 0.0, 2025-03-31 14:25:23.202
76.0, 20.333836059086025, 2.1971912239678204, -13.2654251428321, 29.857491296250373, 0.03200000151991844, 0.09600000455975533, 0.9760000463575125, 0.0, 0.0, 0.0, 0.0, 0.0, 1.743427523202549E9, 0.0, 2025-03-31 14:25:23.202
77.0, 80.9276951411739, 68.11292794300243, -83.04821841605008, 88.08773360634223, 0.03200000151991844, 0.09600000455975533, 0.9760000463575125, 0.0, 0.0, 0.0, 0.0, 0.0, 1.7434275232321153E9, 0.0, 2025-03-31 14:25:23.232
77.0, 81.23810683749616, 80.76874939305708, -70.65418996289372, 102.04130034102127, 0.03200000151991844, 0.09600000455975533, 0.9760000463575125, 0.0, 0.0, 0.0, 0.0, 0.0, 1.7434275232321692E9, 0.0, 2025-03-31 14:25:23.232
78.0, 21.968172339722514, 12.044347807299346, -9.25251249037683, 46.18215460283682, 0.03200000151991844, 0.09600000455975533, 0.9760000463575125, 0.0, 0.0, 0.0, 0.0, 0.0, 1.7434275232325473E9, 0.0, 2025-03-31 14:25:23.232
78.0, 21.523124244995415, -2.7993151168338954, -11.986379357986152, 31.60028467560187, 0.03200000151991844, 0.09600000455975533, 0.9760000463575125, 0.0, 0.0, 0.0, 0.0, 0.0, 1.743427523232572E9, 0.0, 2025-03-31 14:25:23.232
79.0, 78.81839156616479, 64.78067708248273, -83.05569821596146, 93.28993444470689, 0.03200000151991844, 0.09600000455975533, 0.9760000463575125, 0.0, 0.0, 0.0, 0.0, 0.0, 1.74342752323318E9, 0.0, 2025-03-31 14:25:23.233
79.0, 87.58845696225762, 78.54724881937727, -76.23412069678307, 112.10537112178281, 0.03200000151991844, 0.09600000455975533, 0.9760000463575125, 0.0, 0.0, 0.0, 0.0, 0.0, 1.7434275232332156E9, 0.0, 2025-03-31 14:25:23.233
80.0, 23.00412462744862, 10.466110025998205, -5.579930733889341, 46.11109650367871, 0.03200000151991844, 0.09600000455975533, 0.9920000471174717, 0.0, 0.0, 0.0, 0.0, 0.0, 1.743427523234413E9, 0.0, 2025-03-31 14:25:23.234
80.0, 19.574636368080974, -0.5030165440402925, -16.05913040973246, 30.197822192218155, 0.03200000151991844, 0.09600000455975533, 0.9920000471174717, 0.0, 0.0, 0.0, 0.0, 0.0, 1.743427523234458E9, 0.0, 2025-03-31 14:25:23.234
81.0, 88.70294714905322, 67.48088485049084, -80.65468244440854, 92.16422455804422, 0.03200000151991844, 0.11200000531971455, 0.9920000471174717, 0.0, 0.0, 0.0, 0.0, 0.0, 1.743427523261976E9, 0.0, 2025-03-31 14:25:23.261
81.0, 84.54417839832604, 74.48571746749803, -74.94759511202574, 105.17533650388941, 0.03200000151991844, 0.11200000531971455, 0.9920000471174717, 0.0, 0.0, 0.0, 0.0, 0.0, 1.7434275232620163E9, 0.0, 2025-03-31 14:25:23.262
82.0, 32.454851815477014, 12.220123105216771, -9.087956892326474, 50.91312804678455, 0.03200000151991844, 0.11200000531971455, 0.9920000471174717, 0.0, 0.0, 0.0, 0.0, 0.0, 1.7434275232630324E9, 0.0, 2025-03-31 14:25:23.263
82.0, 24.10365521442145, -5.305048087146133, -10.194967279210687, 30.80742588499561, 0.03200000151991844, 0.11200000531971455, 0.9920000471174717, 0.0, 0.0, 0.0, 0.0, 0.0, 1.7434275232630944E9, 0.0, 2025-03-31 14:25:23.263
83.0, 81.16704873833805, 64.65352048398927, -79.9291418530047, 89.75198908662423, 0.03200000151991844, 0.11200000531971455, 0.9920000471174717, 0.0, 0.0, 0.0, 0.0, 0.0, 1.743427523292164E9, 0.0, 2025-03-31 14:25:23.292
83.0, 86.18225457891822, 70.19231231836602, -69.83515187259763, 105.72510179737583, 0.03200000151991844, 0.11200000531971455, 0.9920000471174717, 0.0, 0.0, 0.0, 0.0, 0.0, 1.7434275232923064E9, 0.0, 2025-03-31 14:25:23.292
84.0, 25.678153095766902, 2.1859715241007507, -4.050311652012169, 46.21955360239372, 0.03200000151991844, 0.11200000531971455, 0.9920000471174717, 0.0, 0.0, 0.0, 0.0, 0.0, 1.743427523292441E9, 0.0, 2025-03-31 14:25:23.292
84.0, 24.335529011674225, -2.9937899145297706, -5.467733735218644, 27.377937625627965, 0.03200000151991844, 0.11200000531971455, 0.9920000471174717, 0.0, 0.0, 0.0, 0.0, 0.0, 1.743427523292473E9, 0.0, 2025-03-31 14:25:23.292
85.0, 82.83504411857575, 62.55543660884723, -76.50713339354843, 91.30778746819124, 0.03200000151991844, 0.11200000531971455, 0.9920000471174717, 0.0, 0.0, 0.0, 0.0, 0.0, 1.7434275232934828E9, 0.0, 2025-03-31 14:25:23.293
85.0, 77.10551738645881, 62.323562811594456, -69.48734117671847, 102.33675243752077, 0.03200000151991844, 0.11200000531971455, 0.9920000471174717, 0.0, 0.0, 0.0, 0.0, 0.0, 1.7434275232935164E9, 0.0, 2025-03-31 14:25:23.293
86.0, 18.725679078139365, -1.4978299322538078, -0.7928587906062603, 37.30737200798467, 0.03200000151991844, 0.11200000531971455, 0.9920000471174717, 0.0, 0.0, 0.0, 0.0, 0.0, 1.7434275232940316E9, 0.0, 2025-03-31 14:25:23.294
86.0, 21.074336250312626, -8.67469794722274, -4.667395144701004, 25.287333550397307, 0.03200000151991844, 0.11200000531971455, 0.9920000471174717, 0.0, 0.0, 0.0, 0.0, 0.0, 1.7434275232940857E9, 0.0, 2025-03-31 14:25:23.294
87.0, 78.52293946966529, 63.70732579519972, -74.06123882252723, 90.27183518046513, 0.03200000151991844, 0.11200000531971455, 0.9920000471174717, 0.0, 0.0, 0.0, 0.0, 0.0, 1.7434275233221648E9, 0.0, 2025-03-31 14:25:23.322
87.0, 68.30179289076477, 68.69261243613437, -66.02793371770531, 105.44834920065477, 0.03200000151991844, 0.11200000531971455, 0.9920000471174717, 0.0, 0.0, 0.0, 0.0, 0.0, 1.7434275233222036E9, 0.0, 2025-03-31 14:25:23.322
88.0, 13.104609444737434, -2.141092724632472, -0.4787071943283081, 43.25381293753162, 0.03200000151991844, 0.11200000531971455, 0.9920000471174717, 0.0, 0.0, 0.0, 0.0, 0.0, 1.743427523322597E9, 0.0, 2025-03-31 14:25:23.322
88.0, 18.759338177740574, -14.609919176902622, -9.813497483730316, 28.877637507859617, 0.03200000151991844, 0.11200000531971455, 0.9920000471174717, 0.0, 0.0, 0.0, 0.0, 0.0, 1.7434275233226175E9, 0.0, 2025-03-31 14:25:23.322
89.0, 79.09888406284153, 60.15068093733862, -76.67542889155447, 87.8035012097098, 0.03200000151991844, 0.11200000531971455, 0.9920000471174717, 0.0, 0.0, 0.0, 0.0, 0.0, 1.74342752335198E9, 0.0, 2025-03-31 14:25:23.351
89.0, 82.02722572814673, 65.87272786954418, -63.24918805062771, 102.05252004088834, 0.03200000151991844, 0.11200000531971455, 0.9920000471174717, 0.0, 0.0, 0.0, 0.0, 0.0, 1.7434275233520155E9, 0.0, 2025-03-31 14:25:23.352
90.0, 20.808803353458643, 0.005609849933534861, 8.82990379538387, 45.37059631245211, 0.03200000151991844, 0.11200000531971455, 0.9920000471174717, 0.0, 0.0, 0.0, 0.0, 0.0, 1.7434275233522427E9, 0.0, 2025-03-31 14:25:23.352
90.0, 10.673674473538995, -3.6370527069084346, -7.992166205309331, 30.889703684020787, 0.03200000151991844, 0.11200000531971455, 0.9920000471174717, 0.0, 0.0, 0.0, 0.0, 0.0, 1.7434275233522642E9, 0.0, 2025-03-31 14:25:23.352
91.0, 78.26488637272269, 58.348049158696085, -71.82103874906898, 91.40128496708348, 0.03200000151991844, 0.09600000455975533, 0.9920000471174717, 0.0, 0.0, 0.0, 0.0, 0.0, 1.7434275233530269E9, 0.0, 2025-03-31 14:25:23.353
91.0, 79.51027305796742, 68.99928423250094, -66.41688331309706, 105.3286724020727, 0.03200000151991844, 0.09600000455975533, 0.9920000471174717, 0.0, 0.0, 0.0, 0.0, 0.0, 1.7434275233530536E9, 0.0, 2025-03-31 14:25:23.353
92.0, 20.292697159573436, 4.983416690956801, -0.8788764895871282, 48.42609457625076, 0.03200000151991844, 0.09600000455975533, 0.9920000471174717, 0.0, 0.0, 0.0, 0.0, 0.0, 1.7434275233540215E9, 0.0, 2025-03-31 14:25:23.354
92.0, 13.340223141945899, -3.8726664041168988, -9.334790289402008, 34.958714835811406, 0.03200000151991844, 0.09600000455975533, 0.9920000471174717, 0.0, 0.0, 0.0, 0.0, 0.0, 1.7434275233540552E9, 0.0, 2025-03-31 14:25:23.354
93.0, 77.37853008322418, 63.81952279387042, -70.68410916253924, 88.18123110523447, 0.03200000151991844, 0.09600000455975533, 0.9920000471174717, 0.0, 0.0, 0.0, 0.0, 0.0, 1.7434275233820984E9, 0.0, 2025-03-31 14:25:23.382
93.0, 78.84083096589893, 71.98372439714149, -63.60821844637394, 108.15603676857427, 0.03200000151991844, 0.09600000455975533, 0.9920000471174717, 0.0, 0.0, 0.0, 0.0, 0.0, 1.7434275233821542E9, 0.0, 2025-03-31 14:25:23.382
94.0, 20.50961135700345, 4.441131197381765, -0.11219699867069721, 40.07115807523951, 0.03200000151991844, 0.09600000455975533, 0.9920000471174717, 0.0, 0.0, 0.0, 0.0, 0.0, 1.7434275233826685E9, 0.0, 2025-03-31 14:25:23.382
94.0, 22.11028853803873, -2.6310196188278496, -7.2254867143929005, 32.5165601647459, 0.03200000151991844, 0.09600000455975533, 0.9920000471174717, 0.0, 0.0, 0.0, 0.0, 0.0, 1.7434275233827147E9, 0.0, 2025-03-31 14:25:23.382
95.0, 83.88221610616893, 60.59946893202141, -72.41568284202367, 94.75597522733733, 0.03200000151991844, 0.09600000455975533, 0.9920000471174717, 0.0, 0.0, 0.0, 0.0, 0.0, 1.74342752341232E9, 0.0, 2025-03-31 14:25:23.412
95.0, 81.9262484293431, 73.84245467511937, -61.31565977353603, 110.91982283582911, 0.03200000151991844, 0.09600000455975533, 0.9920000471174717, 0.0, 0.0, 0.0, 0.0, 0.0, 1.7434275234123888E9, 0.0, 2025-03-31 14:25:23.412
96.0, 24.59732200857252, 9.46007693791762, -0.1645555980503559, 49.559284262824804, 0.03200000151991844, 0.09600000455975533, 0.9920000471174717, 0.0, 0.0, 0.0, 0.0, 0.0, 1.7434275234125805E9, 0.0, 2025-03-31 14:25:23.412
96.0, 23.654867219738662, -0.15146594820544124, -9.409588288515806, 39.74952667905018, 0.03200000151991844, 0.09600000455975533, 0.9920000471174717, 0.0, 0.0, 0.0, 0.0, 0.0, 1.7434275234127457E9, 0.0, 2025-03-31 14:25:23.412
97.0, 85.55395138636231, 65.42767977481708, -73.16740273311734, 96.82040000287816, 0.03200000151991844, 0.09600000455975533, 0.9920000471174717, 0.0, 0.0, 0.0, 0.0, 0.0, 1.743427523413229E9, 0.0, 2025-03-31 14:25:23.413
97.0, 75.70679480303079, 76.29582904605195, -65.5118275238201, 114.94769508810714, 0.03200000151991844, 0.09600000455975533, 0.9920000471174717, 0.0, 0.0, 0.0, 0.0, 0.0, 1.7434275234132867E9, 0.0, 2025-03-31 14:25:23.413
98.0, 22.237445136532187, 8.158591753337532, -4.854390142485499, 40.8153981664218, 0.03200000151991844, 0.09600000455975533, 0.9920000471174717, 0.0, 0.0, 0.0, 0.0, 0.0, 1.7434275234140434E9, 0.0, 2025-03-31 14:25:23.414
98.0, 17.72338589001447, 2.043855325784534, -13.976006134413183, 43.54926503403112, 0.03200000151991844, 0.09600000455975533, 0.9920000471174717, 0.0, 0.0, 0.0, 0.0, 0.0, 1.743427523414079E9, 0.0, 2025-03-31 14:25:23.414
99.0, 81.89632922969759, 67.76511724712327, -80.36297024786472, 95.61241231719032, 0.03200000151991844, 0.09600000455975533, 0.9920000471174717, 0.0, 0.0, 0.0, 0.0, 0.0, 1.7434275234421136E9, 0.0, 2025-03-31 14:25:23.442
99.0, 77.93577517662197, 77.10364743648097, -65.49686792399734, 112.23252772027627, 0.03200000151991844, 0.09600000455975533, 0.9920000471174717, 0.0, 0.0, 0.0, 0.0, 0.0, 1.7434275234421513E9, 0.0, 2025-03-31 14:25:23.442
100.0, 16.8594690002501, 4.392512497957796, -4.222347049973905, 47.98852628143504, 0.03200000151991844, 0.09600000455975533, 0.9920000471174717, 0.0, 0.0, 0.0, 0.0, 0.0, 1.7434275234423316E9, 0.0, 2025-03-31 14:25:23.442
100.0, 17.884201588109136, 1.2397768353112042, -12.797937648370862, 42.98828004067764, 0.03200000151991844, 0.09600000455975533, 0.9920000471174717, 0.0, 0.0, 0.0, 0.0, 0.0, 1.7434275234423535E9, 0.0, 2025-03-31 14:25:23.442
0.0, 70.84492486063391, 64.17294333968312, -82.76024611946195, 96.84844925254583, 0.03200000151991844, 0.09600000455975533, 0.9920000471174717, 0.0, 0.0, 0.0, 0.0, 0.0, 1.7434275234432054E9, 0.0, 2025-03-31 14:25:23.443
1.0, 80.23207374941558, 63.836352343671024, -71.0356597583741, 105.02013065572828, 0.03200000151991844, 0.09600000455975533, 0.9920000471174717, 0.0, 0.0, 0.0, 0.0, 0.0, 1.7434275234724505E9, 0.0, 2025-03-31 14:25:23.472
1.0, 17.929080387577415, 5.501392834819853, -8.164201603271067, 52.62413227651268, 0.03200000151991844, 0.09600000455975533, 0.9920000471174717, 0.0, 0.0, 0.0, 0.0, 0.0, 1.7434275234724855E9, 0.0, 2025-03-31 14:25:23.472
2.0, 23.909180416725576, -5.104963439516723, -20.98457865137607, 32.4585917154327, 0.03200000151991844, 0.09600000455975533, 0.9920000471174717, 0.0, 0.0, 0.0, 0.0, 0.0, 1.7434275234725995E9, 0.0, 2025-03-31 14:25:23.472
2.0, 82.36381672415882, 65.11165822856128, -87.16210836730897, 97.07284324988723, 0.03200000151991844, 0.09600000455975533, 0.9920000471174717, 0.0, 0.0, 0.0, 0.0, 0.0, 1.7434275234726179E9, 0.0, 2025-03-31 14:25:23.472
3.0, 79.83190445415676, 75.69557510316372, -70.53451316431165, 109.56784900184721, 0.03200000151991844, 0.09600000455975533, 0.9920000471174717, 0.0, 0.0, 0.0, 0.0, 0.0, 1.7434275234733193E9, 0.0, 2025-03-31 14:25:23.473
3.0, 16.54905730392784, 10.09025008045137, -9.25999229028821, 44.67310497071594, 0.03200000151991844, 0.09600000455975533, 0.9920000471174717, 0.0, 0.0, 0.0, 0.0, 0.0, 1.743427523473352E9, 0.0, 2025-03-31 14:25:23.473
4.0, 19.626994967460632, -2.778745667077601, -18.90145437605679, 37.40273945685476, 0.03200000151991844, 0.09600000455975533, 0.9920000471174717, 0.0, 0.0, 0.0, 0.0, 0.0, 1.7434275235022807E9, 0.0, 2025-03-31 14:25:23.502
4.0, 81.06607143953443, 64.03830694127828, -79.40181595925242, 88.01106565725058, 0.03200000151991844, 0.09600000455975533, 0.9920000471174717, 0.0, 0.0, 0.0, 0.0, 0.0, 1.743427523502314E9, 0.0, 2025-03-31 14:25:23.502
5.0, 76.82128498982638, 75.4076028065756, -74.50628691725433, 99.89646771643311, 0.03200000151991844, 0.09600000455975533, 0.9920000471174717, 0.0, 0.0, 0.0, 0.0, 0.0, 1.7434275235024369E9, 0.0, 2025-03-31 14:25:23.502
5.0, 21.179053449071944, 11.634828762151301, -8.07444400433451, 45.59312035981566, 0.03200000151991844, 0.09600000455975533, 0.9920000471174717, 0.0, 0.0, 0.0, 0.0, 0.0, 1.7434275235024629E9, 0.0, 2025-03-31 14:25:23.502
6.0, 20.827502853237092, 5.288218537345529, -21.201492848806083, 23.946579416282475, 0.03200000151991844, 0.09600000455975533, 0.9920000471174717, 0.0, 0.0, 0.0, 0.0, 0.0, 1.7434275235032935E9, 0.0, 2025-03-31 14:25:23.503
6.0, 80.04881865158677, 64.55815303511918, -86.82551737129688, 92.43536730483174, 0.03200000151991844, 0.09600000455975533, 0.9920000471174717, 0.0, 0.0, 0.0, 0.0, 0.0, 1.7434275235033193E9, 0.0, 2025-03-31 14:25:23.503
7.0, 74.82791831344366, 74.54368591681123, -74.79051931388676, 104.72093865927309, 0.03200000151991844, 0.09600000455975533, 0.9920000471174717, 0.0, 0.0, 0.0, 0.0, 0.0, 1.74342752353238E9, 0.0, 2025-03-31 14:25:23.532
7.0, 16.96792609896511, 6.324170825071633, -7.801431307569146, 44.73668326996267, 0.03200000151991844, 0.09600000455975533, 0.9920000471174717, 0.0, 0.0, 0.0, 0.0, 0.0, 1.7434275235324123E9, 0.0, 2025-03-31 14:25:23.532
8.0, 15.991812210530043, -6.066117728129029, -24.844155405648053, 32.69794531259686, 0.03200000151991844, 0.09600000455975533, 0.9920000471174717, 0.0, 0.0, 0.0, 0.0, 0.0, 1.7434275235326445E9, 0.0, 2025-03-31 14:25:23.532
8.0, 78.94180826470256, 65.67638312187046, -90.88330882322043, 88.99091944564134, 0.03200000151991844, 0.09600000455975533, 0.9920000471174717, 0.0, 0.0, 0.0, 0.0, 0.0, 1.7434275235326848E9, 0.0, 2025-03-31 14:25:23.532
9.0, 75.94988830015063, 73.93782212398946, -73.33569823112339, 102.5667562847957, 0.03200000151991844, 0.09600000455975533, 0.9920000471174717, 0.0, 0.0, 0.0, 0.0, 0.0, 1.7434275235624611E9, 0.0, 2025-03-31 14:25:23.562
9.0, 16.006771810352802, 8.295098101720214, -11.904101558960974, 42.58624079544097, 0.03200000151991844, 0.09600000455975533, 0.9920000471174717, 0.0, 0.0, 0.0, 0.0, 0.0, 1.743427523562503E9, 0.0, 2025-03-31 14:25:23.562
10.0, 17.69346669036895, -2.703947667963803, -15.535544415935874, 27.888433969579637, 0.03200000151991844, 0.09600000455975533, 0.9920000471174717, 0.0, 0.0, 0.0, 0.0, 0.0, 1.7434275235626466E9, 0.0, 2025-03-31 14:25:23.562
10.0, 79.925401953049, 68.4401691891253, -85.93542118184268, 89.73141963686794, 0.03200000151991844, 0.09600000455975533, 0.9920000471174717, 0.0, 0.0, 0.0, 0.0, 0.0, 1.7434275235626955E9, 0.0, 2025-03-31 14:25:23.562
11.0, 80.56118494551629, 72.12397064547986, -72.26982674375176, 98.1200152374804, 0.03200000151991844, 0.11200000531971455, 0.9920000471174717, 0.0, 0.0, 0.0, 0.0, 0.0, 1.7434275235631711E9, 0.0, 2025-03-31 14:25:23.563
11.0, 18.594782579690218, 4.611296645365655, -1.0658714873716235, 43.72691028192639, 0.03200000151991844, 0.11200000531971455, 0.9920000471174717, 0.0, 0.0, 0.0, 0.0, 0.0, 1.7434275235632153E9, 0.0, 2025-03-31 14:25:23.563
12.0, 19.507318168878555, -5.669688332825899, -14.267718330956995, 33.157953007146716, 0.03200000151991844, 0.11200000531971455, 0.9920000471174717, 0.0, 0.0, 0.0, 0.0, 0.0, 1.7434275235640533E9, 0.0, 2025-03-31 14:25:23.564
12.0, 78.76229306682944, 65.95313571859151, -79.46165435854346, 83.88595600612462, 0.03200000151991844, 0.11200000531971455, 0.9920000471174717, 0.0, 0.0, 0.0, 0.0, 0.0, 1.743427523564082E9, 0.0, 2025-03-31 14:25:23.564
13.0, 81.3353442363441, 69.11709108110517, -70.5494727641344, 103.01554427947849, 0.03200000151991844, 0.11200000531971455, 0.9920000471174717, 0.0, 0.0, 0.0, 0.0, 0.0, 1.7434275235921285E9, 0.0, 2025-03-31 14:25:23.592
13.0, 22.15516733750701, 9.211373590864241, -6.705640620552003, 43.33048088662326, 0.03200000151991844, 0.11200000531971455, 0.9920000471174717, 0.0, 0.0, 0.0, 0.0, 0.0, 1.7434275235921617E9, 0.0, 2025-03-31 14:25:23.592
14.0, 15.991812210530043, -4.069011151790619, -16.53035780414939, 32.99339740909636, 0.03200000151991844, 0.11200000531971455, 0.9920000471174717, 0.0, 0.0, 0.0, 0.0, 0.0, 1.7434275235923376E9, 0.0, 2025-03-31 14:25:23.592
14.0, 84.7049940964207, 59.13155819941312, -77.8160983780399, 90.00069243367761, 0.03200000151991844, 0.11200000531971455, 0.9920000471174717, 0.0, 0.0, 0.0, 0.0, 0.0, 1.7434275235923696E9, 0.0, 2025-03-31 14:25:23.592
15.0, 80.46768744662404, 69.9211695715785, -68.5486262878403, 106.69934573583305, 0.03200000151991844, 0.11200000531971455, 0.9920000471174717, 0.0, 0.0, 0.0, 0.0, 0.0, 1.74342752359337E9, 0.0, 2025-03-31 14:25:23.593
15.0, 18.800477077253163, 1.731573679484427, 1.170588686130941, 48.71593682281673, 0.03200000151991844, 0.11200000531971455, 0.9920000471174717, 0.0, 0.0, 0.0, 0.0, 0.0, 1.7434275235934181E9, 0.0, 2025-03-31 14:25:23.593
16.0, 15.000738722272217, -8.313797601498663, -12.831596747972071, 32.54834931436926, 0.03200000151991844, 0.11200000531971455, 0.9920000471174717, 0.0, 0.0, 0.0, 0.0, 0.0, 1.7434275236221316E9, 0.0, 2025-03-31 14:25:23.622
16.0, 79.28213916067034, 58.548133806325495, -76.2191610969603, 98.22847233619541, 0.03200000151991844, 0.11200000531971455, 0.9920000471174717, 0.0, 0.0, 0.0, 0.0, 0.0, 1.7434275236221893E9, 0.0, 2025-03-31 14:25:23.622
17.0, 71.20395525638014, 63.90741044282913, -71.54054625239223, 109.39207370392978, 0.03200000151991844, 0.11200000531971455, 0.9920000471174717, 0.0, 0.0, 0.0, 0.0, 0.0, 1.7434275236223905E9, 0.0, 2025-03-31 14:25:23.622
17.0, 17.6747671905905, -3.908195453695953, -1.7166140796616673, 49.21708341687918, 0.03200000151991844, 0.11200000531971455, 0.9920000471174717, 0.0, 0.0, 0.0, 0.0, 0.0, 1.7434275236224108E9, 0.0, 2025-03-31 14:25:23.622
18.0, 16.246125407516956, -4.760892643593252, -9.435767588205636, 34.99050398543477, 0.03200000151991844, 0.11200000531971455, 0.9920000471174717, 0.0, 0.0, 0.0, 0.0, 0.0, 1.7434275236233034E9, 0.0, 2025-03-31 14:25:23.623
18.0, 81.1520891385153, 59.28489409759641, -80.18345504999161, 98.80067702941597, 0.03200000151991844, 0.11200000531971455, 0.9920000471174717, 0.0, 0.0, 0.0, 0.0, 0.0, 1.74342752362333E9, 0.0, 2025-03-31 14:25:23.623
19.0, 71.72754125017673, 69.46116187702864, -63.5857790466398, 106.84894173406065, 0.03200000151991844, 0.11200000531971455, 0.9920000471174717, 0.0, 0.0, 0.0, 0.0, 0.0, 1.7434275236521163E9, 0.0, 2025-03-31 14:25:23.652
19.0, 19.77659096568823, 0.007479799911379814, 0.5460253935307264, 47.743562834337354, 0.03200000151991844, 0.11200000531971455, 0.9920000471174717, 0.0, 0.0, 0.0, 0.0, 0.0, 1.743427523652151E9, 0.0, 2025-03-31 14:25:23.652
20.0, 17.588749491609633, -14.593089627102017, -14.181700631976128, 29.066502455621958, 0.03200000151991844, 0.11200000531971455, 0.9920000471174717, 0.0, 0.0, 0.0, 0.0, 0.0, 1.743427523652242E9, 0.0, 2025-03-31 14:25:23.652
20.0, 73.68350892700255, 53.342193068005145, -83.79619840718806, 94.06970358546823, 0.03200000151991844, 0.11200000531971455, 0.9920000471174717, 0.0, 0.0, 0.0, 0.0, 0.0, 1.7434275236522648E9, 0.0, 2025-03-31 14:25:23.652
21.0, 76.4061560947448, 62.946256154216826, -66.79087330866605, 112.4587916675955, 0.03200000151991844, 0.11200000531971455, 0.9920000471174717, 0.0, 0.0, 0.0, 0.0, 0.0, 1.743427523653144E9, 0.0, 2025-03-31 14:25:23.653
21.0, 13.620715638622642, -9.061777592636645, -2.82362446654588, 36.867933763191104, 0.03200000151991844, 0.11200000531971455, 0.9920000471174717, 0.0, 0.0, 0.0, 0.0, 0.0, 1.7434275236531897E9, 0.0, 2025-03-31 14:25:23.653
22.0, 17.966479387134314, -11.429134264588356, -16.754751801490784, 29.34325505234301, 0.03200000151991844, 0.11200000531971455, 0.9920000471174717, 0.0, 0.0, 0.0, 0.0, 0.0, 1.7434275236821525E9, 0.0, 2025-03-31 14:25:23.682
22.0, 80.72948044352233, 50.69808379933238, -81.11843003891408, 96.31738345883787, 0.03200000151991844, 0.11200000531971455, 0.9920000471174717, 0.0, 0.0, 0.0, 0.0, 0.0, 1.7434275236821997E9, 0.0, 2025-03-31 14:25:23.682
23.0, 71.4059098539874, 57.332666320726275, -71.23761435598135, 101.40738729853183, 0.03200000151991844, 0.11200000531971455, 0.9920000471174717, 0.0, 0.0, 0.0, 0.0, 0.0, 1.7434275236823437E9, 0.0, 2025-03-31 14:25:23.682
23.0, 22.308503235690296, -9.533004987053573, -3.665101956576109, 36.838014563545585, 0.03200000151991844, 0.11200000531971455, 0.9920000471174717, 0.0, 0.0, 0.0, 0.0, 0.0, 1.743427523682432E9, 0.0, 2025-03-31 14:25:23.682
24.0, 19.963585963472724, -6.312951125204563, -12.07613695692271, 31.01873023249209, 0.03200000151991844, 0.11200000531971455, 0.9920000471174717, 0.0, 0.0, 0.0, 0.0, 0.0, 1.7434275236833773E9, 0.0, 2025-03-31 14:25:23.683
24.0, 76.6679490916431, 67.97268169466406, -79.30083866044879, 85.6698882849887, 0.03200000151991844, 0.11200000531971455, 0.9920000471174717, 0.0, 0.0, 0.0, 0.0, 0.0, 1.743427523683422E9, 0.0, 2025-03-31 14:25:23.683
25.0, 85.62126958556473, 68.70944198593497, -64.9171834308654, 109.43695250339806, 0.03200000151991844, 0.11200000531971455, 0.9920000471174717, 0.0, 0.0, 0.0, 0.0, 0.0, 1.7434275237123544E9, 0.0, 2025-03-31 14:25:23.712
25.0, 30.64100033696741, 9.783578284084797, 1.0583916874602437, 54.73343585152179, 0.03200000151991844, 0.11200000531971455, 0.9920000471174717, 0.0, 0.0, 0.0, 0.0, 0.0, 1.743427523712395E9, 0.0, 2025-03-31 14:25:23.712
26.0, 26.9384993808344, -7.408741812221706, -13.534697939641774, 35.40189298056066, 0.03200000151991844, 0.11200000531971455, 0.9920000471174717, 0.0, 0.0, 0.0, 0.0, 0.0, 1.743427523712571E9, 0.0, 2025-03-31 14:25:23.712
26.0, 86.57494407426566, 69.34148507844657, -71.73128115013242, 106.22063854150474, 0.03200000151991844, 0.11200000531971455, 0.9920000471174717, 0.0, 0.0, 0.0, 0.0, 0.0, 1.7434275237126038E9, 0.0, 2025-03-31 14:25:23.712
27.0, 87.99984595738351, 71.9594150474295, -61.798106867820024, 110.57762198988348, 0.03200000151991844, 0.11200000531971455, 0.9920000471174717, 0.0, 0.0, 0.0, 0.0, 0.0, 1.7434275237134027E9, 0.0, 2025-03-31 14:25:23.713
27.0, 24.836675605736673, 10.314644077792764, 1.1518891863524914, 51.52086178958416, 0.03200000151991844, 0.11200000531971455, 0.9920000471174717, 0.0, 0.0, 0.0, 0.0, 0.0, 1.74342752371344E9, 0.0, 2025-03-31 14:25:23.713
28.0, 22.424440134316683, -1.4174220832064748, -11.189780667424202, 43.52495568431914, 0.03200000151991844, 0.11200000531971455, 0.9920000471174717, 0.0, 0.0, 0.0, 0.0, 0.0, 1.7434275237420628E9, 0.0, 2025-03-31 14:25:23.742
28.0, 84.001892904751, 63.96350894216448, -79.86556355375797, 94.74288557749242, 0.03200000151991844, 0.11200000531971455, 0.9920000471174717, 0.0, 0.0, 0.0, 0.0, 0.0, 1.7434275237421858E9, 0.0, 2025-03-31 14:25:23.742
29.0, 76.59689099248499, 68.85155818425119, -69.3639244781807, 111.06006908416748, 0.03200000151991844, 0.11200000531971455, 0.9920000471174717, 0.0, 0.0, 0.0, 0.0, 0.0, 1.7434275237424088E9, 0.0, 2025-03-31 14:25:23.742
29.0, 14.533251227810979, -4.783332043327391, -10.87936897110194, 43.33422078657895, 0.03200000151991844, 0.11200000531971455, 0.9920000471174717, 0.0, 0.0, 0.0, 0.0, 0.0, 1.7434275237424777E9, 0.0, 2025-03-31 14:25:23.742
30.0, 10.516598675400019, -8.975759893655777, -18.89397457614541, 33.976991097442806, 0.03200000151991844, 0.11200000531971455, 0.9920000471174717, 0.0, 0.0, 0.0, 0.0, 0.0, 1.7434275237440555E9, 0.0, 2025-03-31 14:25:23.744
30.0, 71.92575594782829, 55.23458244558424, -86.90031537041068, 94.91118107549846, 0.03200000151991844, 0.11200000531971455, 0.9920000471174717, 0.0, 0.0, 0.0, 0.0, 0.0, 1.7434275237441173E9, 0.0, 2025-03-31 14:25:23.744
31.0, 73.19732193276286, 62.29551356192678, -71.0356597583741, 100.76786440610886, 0.03200000151991844, 0.11200000531971455, 0.9920000471174717, 0.0, 0.0, 0.0, 0.0, 0.0, 1.7434275237722335E9, 0.0, 2025-03-31 14:25:23.772
31.0, 9.701300485059619, 1.2154674855992198, -14.570650227367878, 41.643786006607115, 0.03200000151991844, 0.11200000531971455, 0.9920000471174717, 0.0, 0.0, 0.0, 0.0, 0.0, 1.7434275237722712E9, 0.0, 2025-03-31 14:25:23.772
32.0, 15.853435912169516, -9.200153890997171, -20.771404353901744, 35.648726377636194, 0.03200000151991844, 0.11200000531971455, 0.9920000471174717, 0.0, 0.0, 0.0, 0.0, 0.0, 1.74342752377239E9, 0.0, 2025-03-31 14:25:23.772
32.0, 81.2605462372303, 60.964109177701175, -79.49905335810035, 95.82745656464249, 0.03200000151991844, 0.11200000531971455, 0.9920000471174717, 0.0, 0.0, 0.0, 0.0, 0.0, 1.74342752377241E9, 0.0, 2025-03-31 14:25:23.772
33.0, 76.58567129261792, 72.45682174153626, -63.746594744734466, 114.87476703897119, 0.03200000151991844, 0.11200000531971455, 0.9920000471174717, 0.0, 0.0, 0.0, 0.0, 0.0, 1.7434275237738369E9, 0.0, 2025-03-31 14:25:23.773
33.0, 11.619869162328541, 1.7016544798389077, 2.610450169071555, 49.9127048086375, 0.03200000151991844, 0.11200000531971455, 0.9920000471174717, 0.0, 0.0, 0.0, 0.0, 0.0, 1.7434275237738984E9, 0.0, 2025-03-31 14:25:23.773
34.0, 20.419853758066893, -1.5632781814783812, -8.104363203980029, 34.70627158880234, 0.03200000151991844, 0.11200000531971455, 0.9920000471174717, 0.0, 0.0, 0.0, 0.0, 0.0, 1.7434275238025224E9, 0.0, 2025-03-31 14:25:23.802
34.0, 80.67338194418699, 63.32024614978582, -74.09863782208413, 96.43706025741994, 0.03200000151991844, 0.11200000531971455, 0.9920000471174717, 0.0, 0.0, 0.0, 0.0, 0.0, 1.7434275238026145E9, 0.0, 2025-03-31 14:25:23.802
35.0, 75.4786609057337, 69.01985368225724, -56.39395143184811, 99.18214682489634, 0.03200000151991844, 0.11200000531971455, 0.9920000471174717, 0.0, 0.0, 0.0, 0.0, 0.0, 1.7434275238027592E9, 0.0, 2025-03-31 14:25:23.802
35.0, 11.343116565607488, 5.22090033814311, 0.8489572899416089, 56.158337734639645, 0.03200000151991844, 0.11200000531971455, 0.9920000471174717, 0.0, 0.0, 0.0, 0.0, 0.0, 1.7434275238028183E9, 0.0, 2025-03-31 14:25:23.802
36.0, 17.30825699493289, -3.0480184638872743, -15.864655612036586, 34.807248887605965, 0.03200000151991844, 0.11200000531971455, 0.9920000471174717, 0.0, 0.0, 0.0, 0.0, 0.0, 1.743427523803379E9, 0.0, 2025-03-31 14:25:23.803
36.0, 73.85554432496428, 64.24026153888553, -79.39807605929673, 98.28831073548645, 0.03200000151991844, 0.11200000531971455, 0.9920000471174717, 0.0, 0.0, 0.0, 0.0, 0.0, 1.7434275238034165E9, 0.0, 2025-03-31 14:25:23.803
37.0, 76.75770669057965, 65.21263552736491, -67.00778750609607, 97.18878014851362, 0.03200000151991844, 0.11200000531971455, 0.9920000471174717, 0.0, 0.0, 0.0, 0.0, 0.0, 1.7434275238322887E9, 0.0, 2025-03-31 14:25:23.832
37.0, 16.91556749958545, 0.9499345887452364, 5.108703339472413, 41.262316211126745, 0.03200000151991844, 0.11200000531971455, 0.9920000471174717, 0.0, 0.0, 0.0, 0.0, 0.0, 1.7434275238323293E9, 0.0, 2025-03-31 14:25:23.832
38.0, 13.826410136185586, -4.2859253492206335, -13.407541341148317, 40.847187316045165, 0.03200000151991844, 0.11200000531971455, 0.9920000471174717, 0.0, 0.0, 0.0, 0.0, 0.0, 1.7434275238324056E9, 0.0, 2025-03-31 14:25:23.832
38.0, 80.84167744219303, 67.63609069865197, -71.34981135465205, 100.11712181381881, 0.03200000151991844, 0.11200000531971455, 0.9920000471174717, 0.0, 0.0, 0.0, 0.0, 0.0, 1.7434275238324254E9, 0.0, 2025-03-31 14:25:23.832
39.0, 73.06268553435802, 69.50230077654123, -65.04434002935886, 107.83627532236278, 0.03200000151991844, 0.11200000531971455, 0.9920000471174717, 0.0, 0.0, 0.0, 0.0, 0.0, 1.7434275238333871E9, 0.0, 2025-03-31 14:25:23.833
39.0, 15.079276621341705, 9.293651389889419, -7.438661011867225, 45.12189296539873, 0.03200000151991844, 0.11200000531971455, 0.9920000471174717, 0.0, 0.0, 0.0, 0.0, 0.0, 1.7434275238334131E9, 0.0, 2025-03-31 14:25:23.833
40.0, 22.413220434449613, 3.422008459456265, -18.14973448496312, 38.56958824303001, 0.03200000151991844, 0.11200000531971455, 0.9920000471174717, 0.0, 0.0, 0.0, 0.0, 0.0, 1.7434275238622932E9, 0.0, 2025-03-31 14:25:23.862
40.0, 81.17078863829374, 76.50713339354843, -74.2557136202231, 108.4944977145642, 0.03200000151991844, 0.11200000531971455, 0.9920000471174717, 0.0, 0.0, 0.0, 0.0, 0.0, 1.7434275238623316E9, 0.0, 2025-03-31 14:25:23.862
41.0, 72.5540591403842, 79.21108106151223, -65.8446786198765, 111.6098343776539, 0.03200000151991844, 0.11200000531971455, 0.9920000471174717, 0.0, 0.0, 0.0, 0.0, 0.0, 1.743427523862492E9, 0.0, 2025-03-31 14:25:23.862
41.0, 13.486079240217805, 10.819530571810901, -3.7212004559114575, 50.41385140269995, 0.03200000151991844, 0.11200000531971455, 0.9920000471174717, 0.0, 0.0, 0.0, 0.0, 0.0, 1.7434275238625195E9, 0.0, 2025-03-31 14:25:23.862
42.0, 17.102562497369945, 6.395228924229741, -23.456652522087097, 41.0566217135638, 0.03200000151991844, 0.11200000531971455, 0.9920000471174717, 0.0, 0.0, 0.0, 0.0, 0.0, 1.7434275238634484E9, 0.0, 2025-03-31 14:25:23.863
42.0, 84.97426689323038, 68.80293948482722, -80.02637925185263, 97.74228534195572, 0.03200000151991844, 0.11200000531971455, 0.9920000471174717, 0.0, 0.0, 0.0, 0.0, 0.0, 1.7434275238634737E9, 0.0, 2025-03-31 14:25:23.863
43.0, 82.69292792025954, 80.20215454977006, -69.87255087215453, 117.7245708052069, 0.03200000151991844, 0.11200000531971455, 0.9920000471174717, 0.0, 0.0, 0.0, 0.0, 0.0, 1.7434275238922207E9, 0.0, 2025-03-31 14:25:23.892
43.0, 18.96503267530352, 9.450727188028395, -8.48209309950471, 55.45149664301425, 0.03200000151991844, 0.11200000531971455, 0.9920000471174717, 0.0, 0.0, 0.0, 0.0, 0.0, 1.7434275238922632E9, 0.0, 2025-03-31 14:25:23.892
44.0, 22.439399734139442, 3.534205458126962, -21.29125044774264, 34.044309296645224, 0.03200000151991844, 0.11200000531971455, 0.9920000471174717, 0.0, 0.0, 0.0, 0.0, 0.0, 1.7434275238924348E9, 0.0, 2025-03-31 14:25:23.892
44.0, 75.98728729970753, 75.01491331122816, -79.5925508569926, 99.57857622019947, 0.03200000151991844, 0.11200000531971455, 0.9920000471174717, 0.0, 0.0, 0.0, 0.0, 0.0, 1.7434275238924928E9, 0.0, 2025-03-31 14:25:23.892
45.0, 77.13917648606002, 75.3702038070187, -70.53451316431165, 113.55084245465696, 0.03200000151991844, 0.11200000531971455, 0.9920000471174717, 0.0, 0.0, 0.0, 0.0, 0.0, 1.7434275238937268E9, 0.0, 2025-03-31 14:25:23.893
45.0, 23.868041517212987, 4.0390919521451, -4.8095113430172205, 47.85949973296374, 0.03200000151991844, 0.11200000531971455, 0.9920000471174717, 0.0, 0.0, 0.0, 0.0, 0.0, 1.7434275238937714E9, 0.0, 2025-03-31 14:25:23.893
46.0, 27.039476679638028, 4.461700647138059, -19.832689465023577, 44.36269327439368, 0.03200000151991844, 0.11200000531971455, 0.9920000471174717, 0.0, 0.0, 0.0, 0.0, 0.0, 1.7434275239221137E9, 0.0, 2025-03-31 14:25:23.922
46.0, 87.82781055942178, 69.76409377343953, -78.72863396722823, 103.28855697624385, 0.03200000151991844, 0.11200000531971455, 0.9920000471174717, 0.0, 0.0, 0.0, 0.0, 0.0, 1.7434275239221554E9, 0.0, 2025-03-31 14:25:23.922
47.0, 80.82297794241458, 71.15159665700048, -69.23302797973156, 109.07792210765183, 0.03200000151991844, 0.11200000531971455, 0.9920000471174717, 0.0, 0.0, 0.0, 0.0, 0.0, 1.7434275239223323E9, 0.0, 2025-03-31 14:25:23.922
47.0, 25.77539049461484, 5.157322038896382, -3.5641246577724814, 49.23204301670194, 0.03200000151991844, 0.11200000531971455, 0.9920000471174717, 0.0, 0.0, 0.0, 0.0, 0.0, 1.743427523922358E9, 0.0, 2025-03-31 14:25:23.922
48.0, 25.072289302945137, -0.7741592908278108, -14.824963424354792, 41.658745606429875, 0.03200000151991844, 0.11200000531971455, 0.9920000471174717, 0.0, 0.0, 0.0, 0.0, 0.0, 1.7434275239233716E9, 0.0, 2025-03-31 14:25:23.923
48.0, 84.23750660195947, 62.635844457894564, -78.68001526780427, 102.57049618475139, 0.03200000151991844, 0.11200000531971455, 0.9920000471174717, 0.0, 0.0, 0.0, 0.0, 0.0, 1.7434275239233997E9, 0.0, 2025-03-31 14:25:23.923
49.0, 78.91562896501273, 74.21083482075483, -57.21672942209989, 112.9449786618352, 0.03200000151991844, 0.11200000531971455, 0.9920000471174717, 0.0, 0.0, 0.0, 0.0, 0.0, 1.7434275239522507E9, 0.0, 2025-03-31 14:25:23.952
49.0, 21.541823744773865, 7.117029615677893, 3.4706271588802338, 49.92392450850457, 0.03200000151991844, 0.11200000531971455, 0.9920000471174717, 0.0, 0.0, 0.0, 0.0, 0.0, 1.7434275239523008E9, 0.0, 2025-03-31 14:25:23.952
50.0, 27.282570176757872, -1.6642554802820086, -12.723139649257064, 45.267749063670635, 0.03200000151991844, 0.11200000531971455, 0.9920000471174717, 0.0, 0.0, 0.0, 0.0, 0.0, 1.7434275239524257E9, 0.0, 2025-03-31 14:25:23.952
50.0, 84.966787093319, 64.90222383104265, -74.90645621251315, 103.80092327017337, 0.03200000151991844, 0.11200000531971455, 0.9920000471174717, 0.0, 0.0, 0.0, 0.0, 0.0, 1.7434275239524505E9, 0.0, 2025-03-31 14:25:23.952
51.0, 77.56178518105298, 74.00888022314757, -59.793520491570234, 104.99395135603845, 0.03200000151991844, 0.11200000531971455, 0.9920000471174717, 0.0, 0.0, 0.0, 0.0, 0.0, 1.7434275239534557E9, 0.0, 2025-03-31 14:25:23.953
51.0, 18.647141179069877, -0.8975759893655777, 2.01954597607255, 45.260269263759255, 0.03200000151991844, 0.11200000531971455, 0.9920000471174717, 0.0, 0.0, 0.0, 0.0, 0.0, 1.74342752395351E9, 0.0, 2025-03-31 14:25:23.953
52.0, 19.204386272467673, -5.841723730787635, -11.133682168088853, 39.41854553297162, 0.03200000151991844, 0.11200000531971455, 0.9920000471174717, 0.0, 0.0, 0.0, 0.0, 0.0, 1.7434275239821448E9, 0.0, 2025-03-31 14:25:23.982
52.0, 82.01226612832397, 60.45548278372735, -75.5908579044044, 101.10445540212095, 0.03200000151991844, 0.11200000531971455, 0.9920000471174717, 0.0, 0.0, 0.0, 0.0, 0.0, 1.7434275239822066E9, 0.0, 2025-03-31 14:25:23.982
53.0, 70.10068476945162, 66.54030001163483, -59.03058090060949, 104.40678706299514, 0.03200000151991844, 0.11200000531971455, 0.9920000471174717, 0.0, 0.0, 0.0, 0.0, 0.0, 1.743427523982426E9, 0.0, 2025-03-31 14:25:23.982
53.0, 10.45302037615329, -0.6096036927774549, 2.6403693687170744, 36.452804868109524, 0.03200000151991844, 0.11200000531971455, 0.9920000471174717, 0.0, 0.0, 0.0, 0.0, 0.0, 1.743427523982449E9, 0.0, 2025-03-31 14:25:23.982
54.0, 17.547610592097044, -7.756552508100867, -7.984686405397952, 33.580561702139676, 0.03200000151991844, 0.11200000531971455, 0.9920000471174717, 0.0, 0.0, 0.0, 0.0, 0.0, 1.7434275239834485E9, 0.0, 2025-03-31 14:25:23.983
54.0, 85.67362818494439, 66.45054241269827, -79.95532115269452, 96.44827995728701, 0.03200000151991844, 0.11200000531971455, 0.9920000471174717, 0.0, 0.0, 0.0, 0.0, 0.0, 1.7434275239834893E9, 0.0, 2025-03-31 14:25:23.983
55.0, 76.45477479416877, 60.64621768146753, -63.57829924672842, 107.32016912847757, 0.03200000151991844, 0.11200000531971455, 0.9920000471174717, 0.0, 0.0, 0.0, 0.0, 0.0, 1.743427524012348E9, 0.0, 2025-03-31 14:25:24.012
55.0, 10.389442076906562, 4.01291265245527, 8.657868397422135, 50.61206610035151, 0.03200000151991844, 0.11200000531971455, 0.9920000471174717, 0.0, 0.0, 0.0, 0.0, 0.0, 1.7434275240124016E9, 0.0, 2025-03-31 14:25:24.012
56.0, 19.69431316666305, -4.098930351436138, -16.88564829993993, 37.54859555512667, 0.03200000151991844, 0.11200000531971455, 0.9920000471174717, 0.0, 0.0, 0.0, 0.0, 0.0, 1.7434275240125513E9, 0.0, 2025-03-31 14:25:24.012
56.0, 84.45816069934517, 61.771927568130195, -73.97896102350205, 101.61682169605047, 0.03200000151991844, 0.11200000531971455, 0.9920000471174717, 0.0, 0.0, 0.0, 0.0, 0.0, 1.7434275240125847E9, 0.0, 2025-03-31 14:25:24.012
57.0, 78.35090407170355, 63.24170825071633, -56.70436312817037, 104.60126186069101, 0.03200000151991844, 0.11200000531971455, 0.9920000471174717, 0.0, 0.0, 0.0, 0.0, 0.0, 1.7434275240132587E9, 0.0, 2025-03-31 14:25:24.013
57.0, 19.196906472556293, -1.2753058848902583, 5.557491334155202, 45.716537058353424, 0.03200000151991844, 0.11200000531971455, 0.9920000471174717, 0.0, 0.0, 0.0, 0.0, 0.0, 1.7434275240132887E9, 0.0, 2025-03-31 14:25:24.013
58.0, 20.719045754522085, 0.7105809915810823, -9.450727188028395, 45.46970366127789, 0.03200000151991844, 0.11200000531971455, 0.9920000471174717, 0.0, 0.0, 0.0, 0.0, 0.0, 1.743427524042478E9, 0.0, 2025-03-31 14:25:24.042
58.0, 80.83045774232596, 67.68470939807594, -72.77097333781421, 101.272750900127, 0.03200000151991844, 0.11200000531971455, 0.9920000471174717, 0.0, 0.0, 0.0, 0.0, 0.0, 1.7434275240425308E9, 0.0, 2025-03-31 14:25:24.042
59.0, 71.87339734844863, 71.15533655695617, -57.87121191434562, 109.04052310809493, 0.03200000151991844, 0.11200000531971455, 0.9920000471174717, 0.0, 0.0, 0.0, 0.0, 0.0, 1.743427524042667E9, 0.0, 2025-03-31 14:25:24.042
59.0, 12.03873795736581, 0.7105809915810823, 3.739899955689907, 51.767695186659694, 0.03200000151991844, 0.11200000531971455, 0.9920000471174717, 0.0, 0.0, 0.0, 0.0, 0.0, 1.743427524042698E9, 0.0, 2025-03-31 14:25:24.042
60.0, 18.97625237517059, -2.131742974743247, -7.913628306239843, 40.56295491941273, 0.03200000151991844, 0.11200000531971455, 0.9920000471174717, 0.0, 0.0, 0.0, 0.0, 0.0, 1.7434275240433047E9, 0.0, 2025-03-31 14:25:24.043
60.0, 81.0361522398889, 63.45488254819065, -75.55719880480319, 99.33548272307962, 0.03200000151991844, 0.11200000531971455, 0.9920000471174717, 0.0, 0.0, 0.0, 0.0, 0.0, 1.743427524043342E9, 0.0, 2025-03-31 14:25:24.043
61.0, 75.5160599052906, 69.64815687481314, -59.744901792146266, 111.26950348168612, 0.03200000151991844, 0.09600000455975533, 0.9920000471174717, 0.0, 0.0, 0.0, 0.0, 0.0, 1.743427524072208E9, 0.0, 2025-03-31 14:25:24.072
61.0, 19.039830674417317, 0.5946440929546952, -4.319584448821843, 50.36523270327598, 0.03200000151991844, 0.09600000455975533, 0.9920000471174717, 0.0, 0.0, 0.0, 0.0, 0.0, 1.7434275240722544E9, 0.0, 2025-03-31 14:25:24.072
62.0, 19.152027673088014, -3.062978063710034, -21.990611739456654, 42.455344296991825, 0.03200000151991844, 0.09600000455975533, 0.9920000471174717, 0.0, 0.0, 0.0, 0.0, 0.0, 1.7434275240723643E9, 0.0, 2025-03-31 14:25:24.072
62.0, 78.95676786452532, 66.31964591424912, -82.96220071706921, 107.5333434259519, 0.03200000151991844, 0.09600000455975533, 0.9920000471174717, 0.0, 0.0, 0.0, 0.0, 0.0, 1.7434275240723865E9, 0.0, 2025-03-31 14:25:24.072
63.0, 74.74190061446279, 70.16052316874266, -66.02419381774962, 108.21026531793177, 0.03200000151991844, 0.09600000455975533, 0.9920000471174717, 0.0, 0.0, 0.0, 0.0, 0.0, 1.7434275240739567E9, 0.0, 2025-03-31 14:25:24.073
63.0, 14.189180431887507, 2.7637860672548413, -1.974667176604271, 48.74211612250656, 0.03200000151991844, 0.09600000455975533, 0.9920000471174717, 0.0, 0.0, 0.0, 0.0, 0.0, 1.743427524074E9, 0.0, 2025-03-31 14:25:24.074
64.0, 17.24841859564185, -1.8437706781551242, -15.69636011403054, 34.68009228911251, 0.03200000151991844, 0.09600000455975533, 0.9920000471174717, 0.0, 0.0, 0.0, 0.0, 0.0, 1.743427524102678E9, 0.0, 2025-03-31 14:25:24.102
64.0, 79.68230845592916, 66.60761821083724, -77.36357048340142, 96.98308565095067, 0.03200000151991844, 0.09600000455975533, 0.9920000471174717, 0.0, 0.0, 0.0, 0.0, 0.0, 1.7434275241028097E9, 0.0, 2025-03-31 14:25:24.102
65.0, 74.08367822226137, 73.33943813107908, -60.32832618523389, 106.44129263889045, 0.03200000151991844, 0.09600000455975533, 0.9920000471174717, 0.0, 0.0, 0.0, 0.0, 0.0, 1.7434275241028824E9, 0.0, 2025-03-31 14:25:24.102
65.0, 16.46303960494697, 4.588857245631516, 0.29919199645519257, 52.04444778338075, 0.03200000151991844, 0.09600000455975533, 0.9920000471174717, 0.0, 0.0, 0.0, 0.0, 0.0, 1.7434275241029096E9, 0.0, 2025-03-31 14:25:24.102
66.0, 18.10111578553915, -1.6343362806364894, -19.963585963472724, 46.29622155148536, 0.03200000151991844, 0.09600000455975533, 0.9920000471174717, 0.0, 0.0, 0.0, 0.0, 0.0, 1.743427524103367E9, 0.0, 2025-03-31 14:25:24.103
66.0, 78.27984597254544, 74.71946121472865, -77.86845697741956, 101.40364739857614, 0.03200000151991844, 0.09600000455975533, 0.9920000471174717, 0.0, 0.0, 0.0, 0.0, 0.0, 1.7434275241033964E9, 0.0, 2025-03-31 14:25:24.103
67.0, 73.32073863130063, 72.01551354676485, -65.43328962475061, 112.09976127184927, 0.03200000151991844, 0.09600000455975533, 0.9920000471174717, 0.0, 0.0, 0.0, 0.0, 0.0, 1.7434275241320884E9, 0.0, 2025-03-31 14:25:24.132
67.0, 19.095929173752666, 9.619022686034441, -1.3875028835609555, 57.55332041811198, 0.03200000151991844, 0.09600000455975533, 0.9920000471174717, 0.0, 0.0, 0.0, 0.0, 0.0, 1.7434275241321504E9, 0.0, 2025-03-31 14:25:24.132
68.0, 21.223932248540223, 2.4309349711984396, -17.588749491609633, 39.06699493713677, 0.03200000151991844, 0.09600000455975533, 0.9920000471174717, 0.0, 0.0, 0.0, 0.0, 0.0, 1.7434275241322706E9, 0.0, 2025-03-31 14:25:24.132
68.0, 81.49615993443877, 66.7347748093307, -77.32243158388883, 101.13063470181078, 0.03200000151991844, 0.09600000455975533, 0.9920000471174717, 0.0, 0.0, 0.0, 0.0, 0.0, 1.7434275241322992E9, 0.0, 2025-03-31 14:25:24.132
69.0, 72.15388984512538, 75.16824920941144, -66.91055010724813, 102.8996073808521, 0.03200000151991844, 0.09600000455975533, 0.9920000471174717, 0.0, 0.0, 0.0, 0.0, 0.0, 1.7434275241335037E9, 0.0, 2025-03-31 14:25:24.133
69.0, 6.320430925115943, 3.3696498600766063, 0.45252789463847876, 43.20332428812981, 0.03200000151991844, 0.09600000455975533, 0.9920000471174717, 0.0, 0.0, 0.0, 0.0, 0.0, 1.7434275241336148E9, 0.0, 2025-03-31 14:25:24.133
70.0, 16.721092701889575, 3.4070488596335053, -16.732312401756644, 27.241431277245283, 0.03200000151991844, 0.09600000455975533, 1.008000047877431, 0.0, 0.0, 0.0, 0.0, 0.0, 1.7434275241624289E9, 0.0, 2025-03-31 14:25:24.162
70.0, 76.8886031890288, 70.46719496510923, -83.85977670643479, 95.71899946592748, 0.03200000151991844, 0.09600000455975533, 1.008000047877431, 0.0, 0.0, 0.0, 0.0, 0.0, 1.743427524162466E9, 0.0, 2025-03-31 14:25:24.162
71.0, 71.79111954942346, 70.94590215943754, -73.29829923156649, 101.12689480185509, 0.03200000151991844, 0.11200000531971455, 1.008000047877431, 0.0, 0.0, 0.0, 0.0, 0.0, 1.743427524162638E9, 0.0, 2025-03-31 14:25:24.162
71.0, 14.436013828963041, -0.9798537883907557, -4.790811843238771, 47.55282793659717, 0.03200000151991844, 0.11200000531971455, 1.008000047877431, 0.0, 0.0, 0.0, 0.0, 0.0, 1.7434275241626687E9, 0.0, 2025-03-31 14:25:24.162
72.0, 18.97999227512628, 0.09723739884793758, -18.50128508079797, 34.414559392258525, 0.03200000151991844, 0.11200000531971455, 1.008000047877431, 0.0, 0.0, 0.0, 0.0, 0.0, 1.743427524163353E9, 0.0, 2025-03-31 14:25:24.163
72.0, 84.5591379981488, 70.00344737060368, -84.84337039478123, 102.83602908160537, 0.03200000151991844, 0.11200000531971455, 1.008000047877431, 0.0, 0.0, 0.0, 0.0, 0.0, 1.7434275241634068E9, 0.0, 2025-03-31 14:25:24.163
73.0, 82.15438232664019, 74.42400911822915, -69.35644467826933, 110.20363199431449, 0.03200000151991844, 0.11200000531971455, 1.008000047877431, 0.0, 0.0, 0.0, 0.0, 0.0, 1.7434275241922472E9, 0.0, 2025-03-31 14:25:24.192
73.0, 15.66270101442933, -1.2379068853333592, 1.0621315874159336, 47.88193913269788, 0.03200000151991844, 0.11200000531971455, 1.008000047877431, 0.0, 0.0, 0.0, 0.0, 0.0, 1.7434275241922796E9, 0.0, 2025-03-31 14:25:24.192
74.0, 19.578376268036664, -3.62022315710783, -19.914967264048755, 41.632566306740046, 0.03200000151991844, 0.11200000531971455, 1.008000047877431, 0.0, 0.0, 0.0, 0.0, 0.0, 1.7434275241923947E9, 0.0, 2025-03-31 14:25:24.192
74.0, 83.31001141294837, 68.95253548305482, -80.26947274897248, 100.50233150925487, 0.03200000151991844, 0.11200000531971455, 1.008000047877431, 0.0, 0.0, 0.0, 0.0, 0.0, 1.7434275241924195E9, 0.0, 2025-03-31 14:25:24.192
75.0, 78.19008837360889, 67.6996689978987, -70.23532116785645, 108.70767201203853, 0.03200000151991844, 0.11200000531971455, 1.008000047877431, 0.0, 0.0, 0.0, 0.0, 0.0, 1.7434275241939392E9, 0.0, 2025-03-31 14:25:24.193
75.0, 17.67102729063481, 0.725540591403842, -1.9260484771803021, 44.57212767191231, 0.03200000151991844, 0.11200000531971455, 1.008000047877431, 0.0, 0.0, 0.0, 0.0, 0.0, 1.7434275241940444E9, 0.0, 2025-03-31 14:25:24.194
76.0, 16.672474002465606, -0.5684647932648659, -16.201246608048677, 39.55692183133215, 0.03200000151991844, 0.11200000531971455, 1.008000047877431, 0.0, 0.0, 0.0, 0.0, 0.0, 1.7434275242221043E9, 0.0, 2025-03-31 14:25:24.222
76.0, 77.37853008322418, 65.549226523377, -81.22688713762909, 96.91576745174825, 0.03200000151991844, 0.11200000531971455, 1.008000047877431, 0.0, 0.0, 0.0, 0.0, 0.0, 1.7434275242221408E9, 0.0, 2025-03-31 14:25:24.222
77.0, 77.97317417617887, 73.08138503413647, -60.133851387538016, 108.32994211651385, 0.03200000151991844, 0.11200000531971455, 1.008000047877431, 0.0, 0.0, 0.0, 0.0, 0.0, 1.7434275242223475E9, 0.0, 2025-03-31 14:25:24.222
77.0, 15.68140051420778, 2.8161446666345, -4.764632543548942, 47.44437083788216, 0.03200000151991844, 0.11200000531971455, 1.008000047877431, 0.0, 0.0, 0.0, 0.0, 0.0, 1.7434275242223716E9, 0.0, 2025-03-31 14:25:24.222
78.0, 23.894220816902816, 1.0396921876817942, -14.50707192812115, 34.34724119305611, 0.03200000151991844, 0.11200000531971455, 1.008000047877431, 0.0, 0.0, 0.0, 0.0, 0.0, 1.7434275242233527E9, 0.0, 2025-03-31 14:25:24.223
78.0, 85.87932268250734, 63.432443148456514, -80.87533654179424, 104.54142346139997, 0.03200000151991844, 0.11200000531971455, 1.008000047877431, 0.0, 0.0, 0.0, 0.0, 0.0, 1.7434275242233813E9, 0.0, 2025-03-31 14:25:24.223
79.0, 79.09140426293015, 68.49252778850496, -63.19682945124805, 109.44443230330944, 0.03200000151991844, 0.11200000531971455, 1.008000047877431, 0.0, 0.0, 0.0, 0.0, 0.0, 1.743427524252247E9, 0.0, 2025-03-31 14:25:24.252
79.0, 17.424193893559277, 2.932081565260887, 3.178914962336421, 50.862639397382736, 0.03200000151991844, 0.11200000531971455, 1.008000047877431, 0.0, 0.0, 0.0, 0.0, 0.0, 1.743427524252298E9, 0.0, 2025-03-31 14:25:24.252
80.0, 25.558476297184825, -4.065271251834929, -10.87936897110194, 36.90907266270369, 0.03200000151991844, 0.11200000531971455, 0.9920000471174717, 0.0, 0.0, 0.0, 0.0, 0.0, 1.7434275242524252E9, 0.0, 2025-03-31 14:25:24.252
80.0, 78.88570976536721, 58.959522801451385, -81.17078863829374, 94.784024477005, 0.03200000151991844, 0.11200000531971455, 0.9920000471174717, 0.0, 0.0, 0.0, 0.0, 0.0, 1.7434275242524514E9, 0.0, 2025-03-31 14:25:24.252
81.0, 74.01636002305895, 70.13434386905283, -66.16631001606584, 101.69909949507564, 0.03200000151991844, 0.11200000531971455, 0.9920000471174717, 0.0, 0.0, 0.0, 0.0, 0.0, 1.743427524253405E9, 0.0, 2025-03-31 14:25:24.253
81.0, 14.47341282851994, -3.104116963222623, -0.602123892866075, 40.491896820254624, 0.03200000151991844, 0.11200000531971455, 0.9920000471174717, 0.0, 0.0, 0.0, 0.0, 0.0, 1.7434275242534504E9, 0.0, 2025-03-31 14:25:24.253
82.0, 16.231165807694197, -6.167095026932657, -14.49585222825408, 34.448218491859734, 0.01600000075995922, 0.11200000531971455, 0.9920000471174717, 0.0, 0.0, 0.0, 0.0, 0.0, 1.7434275242822158E9, 0.0, 2025-03-31 14:25:24.282
82.0, 77.778699378483, 60.47792218346149, -80.7780991429463, 103.6812464715913, 0.01600000075995922, 0.11200000531971455, 0.9920000471174717, 0.0, 0.0, 0.0, 0.0, 0.0, 1.7434275242822547E9, 0.0, 2025-03-31 14:25:24.282
83.0, 65.11913802847266, 61.09500567615032, -63.72789524495602, 105.29314335249364, 0.01600000075995922, 0.11200000531971455, 0.9920000471174717, 0.0, 0.0, 0.0, 0.0, 0.0, 1.7434275242823644E9, 0.0, 2025-03-31 14:25:24.282
83.0, 6.384009224362671, -8.205340502783656, -3.347210460342467, 46.77866864576936, 0.01600000075995922, 0.11200000531971455, 0.9920000471174717, 0.0, 0.0, 0.0, 0.0, 0.0, 1.743427524282384E9, 0.0, 2025-03-31 14:25:24.282
84.0, 12.296791054308414, -7.22922661434859, -13.916167735122144, 41.277275810949504, 0.01600000075995922, 0.11200000531971455, 0.9920000471174717, 0.0, 0.0, 0.0, 0.0, 0.0, 1.743427524283572E9, 0.0, 2025-03-31 14:25:24.283
84.0, 71.14037695713341, 60.81825307942927, -83.29131191316992, 92.5999229028821, 0.01600000075995922, 0.11200000531971455, 0.9920000471174717, 0.0, 0.0, 0.0, 0.0, 0.0, 1.7434275242836075E9, 0.0, 2025-03-31 14:25:24.283
85.0, 70.09320496954024, 62.8078798558563, -60.88557127863169, 104.69849925953895, 0.01600000075995922, 0.11200000531971455, 0.9920000471174717, 0.0, 0.0, 0.0, 0.0, 0.0, 1.7434275243124173E9, 0.0, 2025-03-31 14:25:24.312
85.0, 10.04537128098309, -7.416221612133086, 1.9559676768258214, 42.3917659977451, 0.01600000075995922, 0.11200000531971455, 0.9920000471174717, 0.0, 0.0, 0.0, 0.0, 0.0, 1.7434275243124623E9, 0.0, 2025-03-31 14:25:24.312
86.0, 11.810604060068727, -9.716260084882379, -24.07747591473162, 35.02416308503598, 0.01600000075995922, 0.11200000531971455, 0.9920000471174717, 0.0, 0.0, 0.0, 0.0, 0.0, 1.7434275243126235E9, 0.0, 2025-03-31 14:25:24.312
86.0, 76.87738348916173, 54.83441315032542, -80.86037694197148, 94.28287788294256, 0.01600000075995922, 0.11200000531971455, 0.9920000471174717, 0.0, 0.0, 0.0, 0.0, 0.0, 1.743427524312654E9, 0.0, 2025-03-31 14:25:24.312
87.0, 74.6297036157921, 59.823439691215754, -65.66890332195908, 104.57134266104549, 0.01600000075995922, 0.11200000531971455, 0.9920000471174717, 0.0, 0.0, 0.0, 0.0, 0.0, 1.743427524313444E9, 0.0, 2025-03-31 14:25:24.313
87.0, 9.895775282755494, -10.262285478413105, 1.6754751801490784, 37.14842625986785, 0.01600000075995922, 0.11200000531971455, 0.9920000471174717, 0.0, 0.0, 0.0, 0.0, 0.0, 1.743427524313475E9, 0.0, 2025-03-31 14:25:24.313
88.0, 13.415021141059697, -12.165894555859268, -23.7147056190297, 33.591781402006745, 0.01600000075995922, 0.11200000531971455, 0.9920000471174717, 0.0, 0.0, 0.0, 0.0, 0.0, 1.743427524342282E9, 0.0, 2025-03-31 14:25:24.342
88.0, 84.53669859841466, 61.48769517149776, -86.61608297377825, 94.2305192835629, 0.01600000075995922, 0.11200000531971455, 0.9920000471174717, 0.0, 0.0, 0.0, 0.0, 0.0, 1.7434275243423202E9, 0.0, 2025-03-31 14:25:24.342
89.0, 73.99392062332481, 59.86083869077265, -62.89763745479286, 105.76437074691057, 0.01600000075995922, 0.11200000531971455, 0.9920000471174717, 0.0, 0.0, 0.0, 0.0, 0.0, 1.7434275243423731E9, 0.0, 2025-03-31 14:25:24.342
89.0, 16.762231601402164, -5.9352212296798825, -2.576791069470346, 46.65525194723159, 0.01600000075995922, 0.11200000531971455, 0.9920000471174717, 0.0, 0.0, 0.0, 0.0, 0.0, 1.743427524342392E9, 0.0, 2025-03-31 14:25:24.342
90.0, 25.180746401660144, -6.369049624539912, -18.93885337561369, 42.477783696725965, 0.01600000075995922, 0.11200000531971455, 0.9920000471174717, 0.0, 0.0, 0.0, 0.0, 0.0, 1.7434275243431852E9, 0.0, 2025-03-31 14:25:24.343
90.0, 87.5622776625678, 69.8837705720216, -77.09429768659174, 102.68643308337778, 0.01600000075995922, 0.11200000531971455, 0.9920000471174717, 0.0, 0.0, 0.0, 0.0, 0.0, 1.7434275243432152E9, 0.0, 2025-03-31 14:25:24.343
91.0, 77.68894177954644, 71.05809915810823, -60.70605608075857, 114.15670624747872, 0.01600000075995922, 0.11200000531971455, 0.9920000471174717, 0.0, 0.0, 0.0, 0.0, 0.0, 1.743427524372454E9, 0.0, 2025-03-31 14:25:24.372
91.0, 19.469919169321656, -1.970927276648581, 0.5011465940624475, 50.36523270327598, 0.01600000075995922, 0.11200000531971455, 0.9920000471174717, 0.0, 0.0, 0.0, 0.0, 0.0, 1.7434275243725357E9, 0.0, 2025-03-31 14:25:24.372
92.0, 29.34325505234301, 5.538791834376752, -19.155767573043704, 43.34544048644602, 0.01600000075995922, 0.11200000531971455, 0.9920000471174717, 0.0, 0.0, 0.0, 0.0, 0.0, 1.7434275243727322E9, 0.0, 2025-03-31 14:25:24.372
92.0, 87.969926757738, 74.98873401153833, -80.65094254445285, 103.39701407495886, 0.01600000075995922, 0.11200000531971455, 0.9920000471174717, 0.0, 0.0, 0.0, 0.0, 0.0, 1.74342752437282E9, 0.0, 2025-03-31 14:25:24.372
93.0, 77.89837617706507, 72.01177364680916, -55.17848394624889, 109.52297020237893, 0.01600000075995922, 0.11200000531971455, 0.9920000471174717, 0.0, 0.0, 0.0, 0.0, 0.0, 1.7434275243733163E9, 0.0, 2025-03-31 14:25:24.373
93.0, 14.563170427456498, 1.4772604824975133, 0.22065409738570452, 47.99413613136858, 0.01600000075995922, 0.11200000531971455, 0.9920000471174717, 0.0, 0.0, 0.0, 0.0, 0.0, 1.7434275243733687E9, 0.0, 2025-03-31 14:25:24.373
94.0, 13.523478239774704, 4.098930351436138, -11.118722568266094, 35.72352437674999, 0.01600000075995922, 0.11200000531971455, 0.9920000471174717, 0.0, 0.0, 0.0, 0.0, 0.0, 1.743427524402376E9, 0.0, 2025-03-31 14:25:24.402
94.0, 82.48723342269659, 69.79027307312936, -76.75770669057965, 95.9733126629144, 0.01600000075995922, 0.11200000531971455, 0.9920000471174717, 0.0, 0.0, 0.0, 0.0, 0.0, 1.7434275244024189E9, 0.0, 2025-03-31 14:25:24.402
95.0, 65.59784522280097, 64.37115803733468, -62.30673326179385, 102.64903408382088, 0.01600000075995922, 0.11200000531971455, 0.9920000471174717, 0.0, 0.0, 0.0, 0.0, 0.0, 1.743427524402531E9, 0.0, 2025-03-31 14:25:24.402
95.0, 12.696960349567235, -4.992766440846026, -2.0644247755408287, 42.3169679986313, 0.01600000075995922, 0.11200000531971455, 0.9920000471174717, 0.0, 0.0, 0.0, 0.0, 0.0, 1.7434275244025536E9, 0.0, 2025-03-31 14:25:24.402
96.0, 19.903747564181685, 0.02617929968982935, -22.16264713741839, 37.79168905224651, 0.01600000075995922, 0.11200000531971455, 0.9920000471174717, 0.0, 0.0, 0.0, 0.0, 0.0, 1.7434275244032948E9, 0.0, 2025-03-31 14:25:24.403
96.0, 80.74817994330078, 67.60991139896214, -82.31145812477916, 100.99599830340594, 0.01600000075995922, 0.11200000531971455, 0.9920000471174717, 0.0, 0.0, 0.0, 0.0, 0.0, 1.7434275244033308E9, 0.0, 2025-03-31 14:25:24.403
97.0, 73.33943813107908, 68.23447469156235, -64.70774903334677, 107.70911872386932, 0.01600000075995922, 0.11200000531971455, 0.9920000471174717, 0.0, 0.0, 0.0, 0.0, 0.0, 1.7434275244321077E9, 0.0, 2025-03-31 14:25:24.432
97.0, 8.160461703315377, -1.2005078857764602, 4.83195074275136, 42.72835699375719, 0.01600000075995922, 0.11200000531971455, 0.9920000471174717, 0.0, 0.0, 0.0, 0.0, 0.0, 1.7434275244321487E9, 0.0, 2025-03-31 14:25:24.432
98.0, 16.4518199050799, -1.2977452846243978, -16.212466307915747, 40.94816461484879, 0.01600000075995922, 0.11200000531971455, 0.9920000471174717, 0.0, 0.0, 0.0, 0.0, 0.0, 1.7434275244323788E9, 0.0, 2025-03-31 14:25:24.432
98.0, 89.18539424333721, 60.971588977612555, -83.63912260904908, 100.12834151368588, 0.01600000075995922, 0.11200000531971455, 0.9920000471174717, 0.0, 0.0, 0.0, 0.0, 0.0, 1.7434275244324017E9, 0.0, 2025-03-31 14:25:24.432
99.0, 76.89608298894018, 63.94106954243034, -60.77711417991668, 110.21111179422587, 0.01600000075995922, 0.11200000531971455, 0.9920000471174717, 0.0, 0.0, 0.0, 0.0, 0.0, 1.7434275244332066E9, 0.0, 2025-03-31 14:25:24.433
99.0, 15.883355111815035, -7.218006914481521, -2.9096421655267477, 52.42217767890543, 0.01600000075995922, 0.11200000531971455, 0.9920000471174717, 0.0, 0.0, 0.0, 0.0, 0.0, 1.7434275244332345E9, 0.0, 2025-03-31 14:25:24.433
100.0, 16.721092701889575, -2.098083875142038, -24.10365521442145, 41.621346606872976, 0.01600000075995922, 0.11200000531971455, 0.9920000471174717, 0.0, 0.0, 0.0, 0.0, 0.0, 1.7434275244622557E9, 0.0, 2025-03-31 14:25:24.462
100.0, 82.3002384249121, 65.91199681907892, -77.87967667728662, 104.21231226529926, 0.01600000075995922, 0.11200000531971455, 0.9920000471174717, 0.0, 0.0, 0.0, 0.0, 0.0, 1.7434275244623013E9, 0.0, 2025-03-31 14:25:24.462
0.0, 70.59622151358053, 64.11871479032561, -62.23006531270221, 103.96734881820157, 0.01600000075995922, 0.11200000531971455, 0.9920000471174717, 0.0, 0.0, 0.0, 0.0, 0.0, 1.7434275244624407E9, 0.0, 2025-03-31 14:25:24.462
1.0, 4.822600992862135, -7.3470334629528224, -3.6931512062437832, 53.44130041683093, 0.01600000075995922, 0.09600000455975533, 0.9920000471174717, 0.0, 0.0, 0.0, 0.0, 0.0, 1.7434275244632025E9, 0.0, 2025-03-31 14:25:24.463
1.0, 13.379492091480643, -5.753836081828922, -24.827325855847448, 34.28553284378722, 0.01600000075995922, 0.09600000455975533, 0.9920000471174717, 0.0, 0.0, 0.0, 0.0, 0.0, 1.7434275244632485E9, 0.0, 2025-03-31 14:25:24.463
2.0, 77.55991523107514, 67.38738735159859, -79.95345120271668, 106.97048848262057, 0.01600000075995922, 0.09600000455975533, 0.9920000471174717, 0.0, 0.0, 0.0, 0.0, 0.0, 1.7434275244640417E9, 0.0, 2025-03-31 14:25:24.464
2.0, 67.45470555080101, 65.10978827858344, -63.40439389878884, 108.5861252634786, 0.01600000075995922, 0.09600000455975533, 0.9920000471174717, 0.0, 0.0, 0.0, 0.0, 0.0, 1.7434275244640713E9, 0.0, 2025-03-31 14:25:24.464
3.0, 4.916098491754383, -1.6362062306143343, 2.286948822904378, 45.1873412146233, 0.01600000075995922, 0.09600000455975533, 0.9920000471174717, 0.0, 0.0, 0.0, 0.0, 0.0, 1.7434275244922383E9, 0.0, 2025-03-31 14:25:24.492
3.0, 17.05581374792382, 3.053628313820809, -13.671204288024455, 38.14510959805921, 0.01600000075995922, 0.09600000455975533, 0.9920000471174717, 0.0, 0.0, 0.0, 0.0, 0.0, 1.7434275244922678E9, 0.0, 2025-03-31 14:25:24.492
4.0, 84.32913415087387, 72.24177749408409, -79.69539810577407, 110.10452464548871, 0.01600000075995922, 0.09600000455975533, 0.9920000471174717, 0.0, 0.0, 0.0, 0.0, 0.0, 1.7434275244926257E9, 0.0, 2025-03-31 14:25:24.492
4.0, 74.61661396594718, 72.63072708947584, -61.27639082400128, 115.27680628420785, 0.01600000075995922, 0.09600000455975533, 0.9920000471174717, 0.0, 0.0, 0.0, 0.0, 0.0, 1.7434275244926577E9, 0.0, 2025-03-31 14:25:24.492
5.0, 10.716683323029429, 7.967856855597347, 2.6684186183847487, 49.907094958703965, 0.01600000075995922, 0.09600000455975533, 0.9920000471174717, 0.0, 0.0, 0.0, 0.0, 0.0, 1.7434275245221808E9, 0.0, 2025-03-31 14:25:24.522
5.0, 14.520161577966064, 3.6445325068198144, -22.852658679243177, 45.422954911831766, 0.01600000075995922, 0.09600000455975533, 0.9920000471174717, 0.0, 0.0, 0.0, 0.0, 0.0, 1.7434275245222173E9, 0.0, 2025-03-31 14:25:24.522
6.0, 76.35940734529868, 69.38823382789269, -81.62144658295438, 103.0323738292791, 0.01600000075995922, 0.09600000455975533, 0.9920000471174717, 0.0, 0.0, 0.0, 0.0, 0.0, 1.7434275245223196E9, 0.0, 2025-03-31 14:25:24.522
6.0, 65.29304337641224, 77.40657933289185, -65.33418227592483, 104.73028840916231, 0.01600000075995922, 0.09600000455975533, 0.9920000471174717, 0.0, 0.0, 0.0, 0.0, 0.0, 1.7434275245223453E9, 0.0, 2025-03-31 14:25:24.522
7.0, 5.626679483335465, 3.988603302743286, -3.091027313377708, 47.55469788657501, 0.01600000075995922, 0.09600000455975533, 0.9920000471174717, 0.0, 0.0, 0.0, 0.0, 0.0, 1.7434275245232055E9, 0.0, 2025-03-31 14:25:24.523
7.0, 21.58109269430861, 7.548988060560077, -20.619938405696303, 43.53430543420836, 0.01600000075995922, 0.09600000455975533, 0.9920000471174717, 0.0, 0.0, 0.0, 0.0, 0.0, 1.7434275245232358E9, 0.0, 2025-03-31 14:25:24.523
8.0, 80.80240849265829, 76.17989214742556, -84.92003834387287, 108.5150671643205, 0.01600000075995922, 0.09600000455975533, 0.9920000471174717, 0.0, 0.0, 0.0, 0.0, 0.0, 1.743427524523924E9, 0.0, 2025-03-31 14:25:24.523
8.0, 72.74292408814654, 67.72023844765499, -62.72373210685328, 107.2173218796961, 0.01600000075995922, 0.09600000455975533, 0.9920000471174717, 0.0, 0.0, 0.0, 0.0, 0.0, 1.7434275245239687E9, 0.0, 2025-03-31 14:25:24.523
9.0, 19.041700624395162, 10.099599830340594, -1.1724586361087859, 49.79489796003327, 0.01600000075995922, 0.09600000455975533, 0.9920000471174717, 0.0, 0.0, 0.0, 0.0, 0.0, 1.7434275245521023E9, 0.0, 2025-03-31 14:25:24.552
9.0, 24.7338283569552, 10.881238921079785, -19.434390119742602, 37.17647550953552, 0.01600000075995922, 0.09600000455975533, 0.9920000471174717, 0.0, 0.0, 0.0, 0.0, 0.0, 1.7434275245521667E9, 0.0, 2025-03-31 14:25:24.552
10.0, 87.71748351072893, 78.45749122044072, -78.09846082469448, 107.07894558133557, 0.01600000075995922, 0.09600000455975533, 0.9920000471174717, 0.0, 0.0, 0.0, 0.0, 0.0, 1.7434275245526376E9, 0.0, 2025-03-31 14:25:24.552
10.0, 77.16348583577201, 76.89047313900664, -61.526964121032506, 107.30707947863266, 0.01600000075995922, 0.09600000455975533, 0.9920000471174717, 0.0, 0.0, 0.0, 0.0, 0.0, 1.743427524552677E9, 0.0, 2025-03-31 14:25:24.552
11.0, 14.363085779827088, 3.4051789096556604, -6.875806068535894, 43.422108435537666, 0.01600000075995922, 0.11200000531971455, 0.9920000471174717, 0.0, 0.0, 0.0, 0.0, 0.0, 1.743427524582173E9, 0.0, 2025-03-31 14:25:24.582
11.0, 22.224355486687273, 3.378999609965831, -20.978968801442534, 42.42729504732415, 0.01600000075995922, 0.11200000531971455, 0.9920000471174717, 0.0, 0.0, 0.0, 0.0, 0.0, 1.7434275245822074E9, 0.0, 2025-03-31 14:25:24.582
12.0, 90.48500947793946, 71.4975374029018, -83.92522495565936, 101.3643784490414, 0.01600000075995922, 0.11200000531971455, 0.9920000471174717, 0.0, 0.0, 0.0, 0.0, 0.0, 1.7434275245822973E9, 0.0, 2025-03-31 14:25:24.582
12.0, 78.69684481760487, 69.41815302753821, -61.6391611197032, 107.8867639717646, 0.01600000075995922, 0.11200000531971455, 0.9920000471174717, 0.0, 0.0, 0.0, 0.0, 0.0, 1.7434275245823271E9, 0.0, 2025-03-31 14:25:24.582
13.0, 13.48046939028427, 4.134459401015192, 1.927918427158147, 48.60934967407957, 0.01600000075995922, 0.11200000531971455, 0.9920000471174717, 0.0, 0.0, 0.0, 0.0, 0.0, 1.7434275245836742E9, 0.0, 2025-03-31 14:25:24.583
13.0, 22.085979188326746, 8.065094254445285, -15.167164270300418, 43.22763363784179, 0.01600000075995922, 0.11200000531971455, 0.9920000471174717, 0.0, 0.0, 0.0, 0.0, 0.0, 1.7434275245837147E9, 0.0, 2025-03-31 14:25:24.583
14.0, 89.1723045934923, 74.6091341660358, -81.76730268122628, 102.86033843131736, 0.01600000075995922, 0.11200000531971455, 0.9920000471174717, 0.0, 0.0, 0.0, 0.0, 0.0, 1.743427524584108E9, 0.0, 2025-03-31 14:25:24.584
14.0, 79.25408991100267, 70.26711031747982, -58.27325115958229, 106.63015758665279, 0.01600000075995922, 0.11200000531971455, 0.9920000471174717, 0.0, 0.0, 0.0, 0.0, 0.0, 1.7434275245841708E9, 0.0, 2025-03-31 14:25:24.584
15.0, 13.682423987891525, -0.7012312416918576, -0.6264332425780594, 50.322223853785545, 0.01600000075995922, 0.11200000531971455, 0.9920000471174717, 0.0, 0.0, 0.0, 0.0, 0.0, 1.7434275246127625E9, 0.0, 2025-03-31 14:25:24.612
15.0, 20.35066560888663, 0.5291958437301219, -18.196483234409243, 43.010719440411776, 0.01600000075995922, 0.11200000531971455, 0.9920000471174717, 0.0, 0.0, 0.0, 0.0, 0.0, 1.743427524612821E9, 0.0, 2025-03-31 14:25:24.612
16.0, 79.26156971091405, 70.43914571544155, -80.63785289460793, 101.28210065001622, 0.01600000075995922, 0.11200000531971455, 0.9920000471174717, 0.0, 0.0, 0.0, 0.0, 0.0, 1.7434275246129339E9, 0.0, 2025-03-31 14:25:24.612
16.0, 78.99229691410437, 69.11896103108302, -64.90409378102049, 103.52230072347447, 0.01600000075995922, 0.11200000531971455, 0.9920000471174717, 0.0, 0.0, 0.0, 0.0, 0.0, 1.7434275246129732E9, 0.0, 2025-03-31 14:25:24.612
17.0, 7.672404759097844, -4.250396299641579, -1.4379915329627693, 45.25465941382572, 0.01600000075995922, 0.11200000531971455, 0.9920000471174717, 0.0, 0.0, 0.0, 0.0, 0.0, 1.7434275246420631E9, 0.0, 2025-03-31 14:25:24.642
17.0, 24.31495956191793, 0.36464024567976594, -20.949049601797014, 42.12062325095758, 0.01600000075995922, 0.11200000531971455, 0.9920000471174717, 0.0, 0.0, 0.0, 0.0, 0.0, 1.7434275246421008E9, 0.0, 2025-03-31 14:25:24.642
18.0, 68.59163513733074, 60.734105330426246, -90.01752198347822, 104.74150810902938, 0.01600000075995922, 0.11200000531971455, 0.9920000471174717, 0.0, 0.0, 0.0, 0.0, 0.0, 1.743427524642231E9, 0.0, 2025-03-31 14:25:24.642
18.0, 70.92907260963693, 62.31608301168308, -66.28037696471438, 108.18595596821979, 0.01600000075995922, 0.11200000531971455, 0.9920000471174717, 0.0, 0.0, 0.0, 0.0, 0.0, 1.7434275246423552E9, 0.0, 2025-03-31 14:25:24.642
19.0, 10.163178129587322, -4.504709496628493, 0.3496806458570063, 48.16056167939678, 0.01600000075995922, 0.11200000531971455, 0.9920000471174717, 0.0, 0.0, 0.0, 0.0, 0.0, 1.743427524642982E9, 0.0, 2025-03-31 14:25:24.642
19.0, 22.867618279065937, -2.447764520999044, -21.89524429058656, 31.61524427542463, 0.01600000075995922, 0.11200000531971455, 0.9920000471174717, 0.0, 0.0, 0.0, 0.0, 0.0, 1.7434275246430717E9, 0.0, 2025-03-31 14:25:24.643
20.0, 81.26615608716384, 70.32320881681517, -79.99459010222927, 103.87385131930932, 0.01600000075995922, 0.11200000531971455, 0.9920000471174717, 0.0, 0.0, 0.0, 0.0, 0.0, 1.7434275246440144E9, 0.0, 2025-03-31 14:25:24.644
20.0, 77.90024612704292, 68.68887253617868, -62.357221911195666, 102.10861854022369, 0.01600000075995922, 0.11200000531971455, 0.9920000471174717, 0.0, 0.0, 0.0, 0.0, 0.0, 1.7434275246440425E9, 0.0, 2025-03-31 14:25:24.644
21.0, 10.380092327017337, 0.36838014563545585, 0.9892035382799804, 45.935321205761284, 0.01600000075995922, 0.09600000455975533, 0.9920000471174717, 0.0, 0.0, 0.0, 0.0, 0.0, 1.743427524672298E9, 0.0, 2025-03-31 14:25:24.672
21.0, 26.35320503776893, -2.047595225740224, -12.515575201716274, 40.11977677466348, 0.01600000075995922, 0.09600000455975533, 0.9920000471174717, 0.0, 0.0, 0.0, 0.0, 0.0, 1.7434275246723404E9, 0.0, 2025-03-31 14:25:24.672
22.0, 83.48017686093226, 71.20956510631368, -82.0178759782575, 100.76599445613101, 0.03200000151991844, 0.09600000455975533, 0.9920000471174717, 0.0, 0.0, 0.0, 0.0, 0.0, 1.743427524672648E9, 0.0, 2025-03-31 14:25:24.672
22.0, 76.43420534441248, 68.62155433697626, -56.91940737562254, 110.37753734225407, 0.03200000151991844, 0.09600000455975533, 0.9920000471174717, 0.0, 0.0, 0.0, 0.0, 0.0, 1.7434275246726797E9, 0.0, 2025-03-31 14:25:24.672
23.0, 10.462370126042515, -0.36464024567976594, 3.0311889140866697, 38.74349359096959, 0.03200000151991844, 0.09600000455975533, 0.9920000471174717, 0.0, 0.0, 0.0, 0.0, 0.0, 1.7434275247021868E9, 0.0, 2025-03-31 14:25:24.702
23.0, 26.065232741180807, 0.5553751434199512, -18.630311629269272, 41.1482492624782, 0.03200000151991844, 0.09600000455975533, 0.9920000471174717, 0.0, 0.0, 0.0, 0.0, 0.0, 1.7434275247022228E9, 0.0, 2025-03-31 14:25:24.702
24.0, 79.54580210754648, 62.66763360751793, -77.62723343027756, 94.92053082538769, 0.03200000151991844, 0.09600000455975533, 0.9920000471174717, 0.0, 0.0, 0.0, 0.0, 0.0, 1.7434275247022853E9, 0.0, 2025-03-31 14:25:24.702
24.0, 76.60624074237421, 62.757391206454486, -64.83677558181807, 104.46101561235264, 0.03200000151991844, 0.09600000455975533, 0.9920000471174717, 0.0, 0.0, 0.0, 0.0, 0.0, 1.7434275247023027E9, 0.0, 2025-03-31 14:25:24.702
25.0, 15.709449763875455, -10.64188532391563, -3.7230704058893025, 40.78921886673197, 0.03200000151991844, 0.09600000455975533, 0.9920000471174717, 0.0, 0.0, 0.0, 0.0, 0.0, 1.7434275247033005E9, 0.0, 2025-03-31 14:25:24.703
25.0, 25.58278564689681, -3.6108734072186053, -25.52668714756146, 41.32028466043994, 0.03200000151991844, 0.09600000455975533, 0.9920000471174717, 0.0, 0.0, 0.0, 0.0, 0.0, 1.7434275247033324E9, 0.0, 2025-03-31 14:25:24.703
26.0, 86.2103038285859, 71.41525960387662, -82.85561356833205, 104.72280860925093, 0.03200000151991844, 0.09600000455975533, 0.9920000471174717, 0.0, 0.0, 0.0, 0.0, 0.0, 1.7434275247039587E9, 0.0, 2025-03-31 14:25:24.703
26.0, 79.71035770559683, 66.00736426794901, -59.42888024589047, 107.59879167517647, 0.03200000151991844, 0.09600000455975533, 0.9920000471174717, 0.0, 0.0, 0.0, 0.0, 0.0, 1.7434275247039874E9, 0.0, 2025-03-31 14:25:24.703
27.0, 21.401577496435493, -8.26330895209685, 4.871219692286104, 43.919515129644424, 0.03200000151991844, 0.09600000455975533, 0.9920000471174717, 0.0, 0.0, 0.0, 0.0, 0.0, 1.7434275247324E9, 0.0, 2025-03-31 14:25:24.732
27.0, 31.675082674715668, 0.8096883404068649, -19.16511732293293, 40.56856476934627, 0.03200000151991844, 0.09600000455975533, 0.9920000471174717, 0.0, 0.0, 0.0, 0.0, 0.0, 1.7434275247324667E9, 0.0, 2025-03-31 14:25:24.732
28.0, 89.63979208795354, 69.87816072208807, -80.45085789682344, 105.17533650388941, 0.03200000151991844, 0.09600000455975533, 0.9920000471174717, 0.0, 0.0, 0.0, 0.0, 0.0, 1.743427524732829E9, 0.0, 2025-03-31 14:25:24.732
28.0, 72.4998305910267, 64.31318958802149, -62.802270005922765, 106.3646246897988, 0.03200000151991844, 0.09600000455975533, 0.9920000471174717, 0.0, 0.0, 0.0, 0.0, 0.0, 1.743427524732866E9, 0.0, 2025-03-31 14:25:24.732
29.0, 10.25293572852388, -3.2107041119597852, 4.3251942987553775, 44.297245025169104, 0.03200000151991844, 0.09600000455975533, 0.9920000471174717, 0.0, 0.0, 0.0, 0.0, 0.0, 1.743427524762139E9, 0.0, 2025-03-31 14:25:24.762
29.0, 17.95712963724509, 3.2443632115609944, -20.877991502638906, 43.5941438334994, 0.03200000151991844, 0.09600000455975533, 0.9920000471174717, 0.0, 0.0, 0.0, 0.0, 0.0, 1.7434275247621753E9, 0.0, 2025-03-31 14:25:24.762
30.0, 87.73992291046306, 69.24611762957647, -82.72097716992721, 104.93598290672526, 0.03200000151991844, 0.09600000455975533, 0.9920000471174717, 0.0, 0.0, 0.0, 0.0, 0.0, 1.7434275247624059E9, 0.0, 2025-03-31 14:25:24.762
30.0, 76.95405143825337, 66.68802605988458, -56.40704108169302, 107.10138498106971, 0.03200000151991844, 0.09600000455975533, 0.9920000471174717, 0.0, 0.0, 0.0, 0.0, 0.0, 1.7434275247624316E9, 0.0, 2025-03-31 14:25:24.762
31.0, 17.54948054207489, -0.013089649844914675, 6.677591370884329, 49.34237006539479, 0.03200000151991844, 0.11200000531971455, 0.9920000471174717, 0.0, 0.0, 0.0, 0.0, 0.0, 1.7434275247631912E9, 0.0, 2025-03-31 14:25:24.763
31.0, 24.827325855847448, 5.290088487323374, -16.075959959533066, 48.48967287549749, 0.03200000151991844, 0.11200000531971455, 0.9920000471174717, 0.0, 0.0, 0.0, 0.0, 0.0, 1.743427524763218E9, 0.0, 2025-03-31 14:25:24.763
32.0, 90.38029227918014, 71.75933039980009, -80.58923419518396, 115.4451017822139, 0.03200000151991844, 0.11200000531971455, 0.9920000471174717, 0.0, 0.0, 0.0, 0.0, 0.0, 1.7434275247640915E9, 0.0, 2025-03-31 14:25:24.764
32.0, 72.17445929488167, 69.14514033077285, -56.65013457881287, 109.5136204524897, 0.03200000151991844, 0.11200000531971455, 0.9920000471174717, 0.0, 0.0, 0.0, 0.0, 0.0, 1.7434275247641556E9, 0.0, 2025-03-31 14:25:24.764
33.0, 19.827079615090042, -1.3968526334501803, 0.1252866485156119, 57.43925346946344, 0.03200000151991844, 0.11200000531971455, 0.9920000471174717, 0.0, 0.0, 0.0, 0.0, 0.0, 1.743427524792219E9, 0.0, 2025-03-31 14:25:24.792
33.0, 25.642624046187848, 5.727656782139093, -22.878837978933007, 44.11772982729599, 0.03200000151991844, 0.11200000531971455, 0.9920000471174717, 0.0, 0.0, 0.0, 0.0, 0.0, 1.7434275247922544E9, 0.0, 2025-03-31 14:25:24.792
34.0, 85.34638693882152, 69.46303182700649, -79.19051161175594, 108.68710256228223, 0.03200000151991844, 0.11200000531971455, 0.9920000471174717, 0.0, 0.0, 0.0, 0.0, 0.0, 1.7434275247927413E9, 0.0, 2025-03-31 14:25:24.792
34.0, 76.15745274769142, 69.83702182257548, -58.602362355683, 103.48490172391757, 0.03200000151991844, 0.11200000531971455, 0.9920000471174717, 0.0, 0.0, 0.0, 0.0, 0.0, 1.7434275247927663E9, 0.0, 2025-03-31 14:25:24.792
35.0, 10.63814542395994, 0.8134282403625548, -3.188264712225646, 41.798991854768246, 0.03200000151991844, 0.11200000531971455, 0.9920000471174717, 0.0, 0.0, 0.0, 0.0, 0.0, 1.7434275248225195E9, 0.0, 2025-03-31 14:25:24.822
35.0, 22.572166182566434, 1.1537591363303363, -27.800546320620924, 31.98175447108224, 0.03200000151991844, 0.11200000531971455, 0.9920000471174717, 0.0, 0.0, 0.0, 0.0, 0.0, 1.7434275248225791E9, 0.0, 2025-03-31 14:25:24.822
36.0, 84.42637154972181, 68.06056934362277, -93.33855314413086, 97.44496329547837, 0.03200000151991844, 0.11200000531971455, 0.9920000471174717, 0.0, 0.0, 0.0, 0.0, 0.0, 1.7434275248226097E9, 0.0, 2025-03-31 14:25:24.822
36.0, 68.41211993945763, 64.40294718695804, -70.09881481947377, 104.5844323108904, 0.03200000151991844, 0.11200000531971455, 0.9920000471174717, 0.0, 0.0, 0.0, 0.0, 0.0, 1.743427524822631E9, 0.0, 2025-03-31 14:25:24.822
37.0, 13.443070390727371, -1.5165294320322573, -4.194297800306231, 43.15283563872799, 0.03200000151991844, 0.11200000531971455, 0.9920000471174717, 0.0, 0.0, 0.0, 0.0, 0.0, 1.743427524823154E9, 0.0, 2025-03-31 14:25:24.823
37.0, 19.08283952390775, 2.7656560172326863, -23.16307037556544, 44.19626772636548, 0.03200000151991844, 0.11200000531971455, 0.9920000471174717, 0.0, 0.0, 0.0, 0.0, 0.0, 1.7434275248232992E9, 0.0, 2025-03-31 14:25:24.823
38.0, 90.1334588821046, 70.28954971721396, -90.1334588821046, 102.62846463406458, 0.03200000151991844, 0.11200000531971455, 0.9920000471174717, 0.0, 0.0, 0.0, 0.0, 0.0, 1.7434275248240175E9, 0.0, 2025-03-31 14:25:24.824
38.0, 71.05996910808608, 62.6414543078281, -65.91760666901246, 101.61869164602831, 0.03200000151991844, 0.11200000531971455, 0.9920000471174717, 0.0, 0.0, 0.0, 0.0, 0.0, 1.7434275248240452E9, 0.0, 2025-03-31 14:25:24.824
39.0, 10.26789532834664, 2.5225625201128423, -4.414951897691935, 46.5598844983615, 0.03200000151991844, 0.11200000531971455, 0.9920000471174717, 0.0, 0.0, 0.0, 0.0, 0.0, 1.7434275248522687E9, 0.0, 2025-03-31 14:25:24.852
39.0, 12.526794901583344, 4.6131665953435, -25.58278564689681, 42.7414466436021, 0.03200000151991844, 0.11200000531971455, 0.9920000471174717, 0.0, 0.0, 0.0, 0.0, 0.0, 1.7434275248523052E9, 0.0, 2025-03-31 14:25:24.852
40.0, 80.85850699199364, 70.36434771632776, -84.0224623545073, 105.04444000544026, 0.03200000151991844, 0.11200000531971455, 0.9920000471174717, 0.0, 0.0, 0.0, 0.0, 0.0, 1.7434275248524814E9, 0.0, 2025-03-31 14:25:24.852
40.0, 71.72941120015457, 68.95066553307697, -65.30052317632362, 105.27257390273735, 0.03200000151991844, 0.11200000531971455, 0.9920000471174717, 0.0, 0.0, 0.0, 0.0, 0.0, 1.7434275248525083E9, 0.0, 2025-03-31 14:25:24.852
41.0, 11.124332418199629, -3.1658253124915063, -4.119499801192433, 40.688241567928344, 0.03200000151991844, 0.11200000531971455, 0.9920000471174717, 0.0, 0.0, 0.0, 0.0, 0.0, 1.7434275248822317E9, 0.0, 2025-03-31 14:25:24.882
41.0, 26.835652132052928, 3.6108734072186053, -21.214582498650998, 40.51246627001092, 0.03200000151991844, 0.11200000531971455, 0.9920000471174717, 0.0, 0.0, 0.0, 0.0, 0.0, 1.7434275248822682E9, 0.0, 2025-03-31 14:25:24.882
42.0, 77.96008452633396, 70.82435541087762, -85.30150813935325, 100.01053466508165, 0.03200000151991844, 0.11200000531971455, 0.9920000471174717, 0.0, 0.0, 0.0, 0.0, 0.0, 1.7434275248825223E9, 0.0, 2025-03-31 14:25:24.882
42.0, 69.73978442372754, 65.11352817853913, -64.21969208912924, 103.15579052781686, 0.03200000151991844, 0.11200000531971455, 0.9920000471174717, 0.0, 0.0, 0.0, 0.0, 0.0, 1.7434275248825657E9, 0.0, 2025-03-31 14:25:24.882
43.0, 10.436190826352686, -4.938537891488522, 0.7087110416032374, 40.74807996721938, 0.03200000151991844, 0.11200000531971455, 0.9920000471174717, 0.0, 0.0, 0.0, 0.0, 0.0, 1.7434275248831832E9, 0.0, 2025-03-31 14:25:24.883
43.0, 22.213135786820203, 2.372966521885246, -19.243655222002417, 40.276852572802454, 0.03200000151991844, 0.11200000531971455, 0.9920000471174717, 0.0, 0.0, 0.0, 0.0, 0.0, 1.7434275248832097E9, 0.0, 2025-03-31 14:25:24.883
44.0, 86.22152352845296, 73.12065398367122, -81.64388598268852, 110.42989594163373, 0.03200000151991844, 0.11200000531971455, 0.9920000471174717, 0.0, 0.0, 0.0, 0.0, 0.0, 1.743427524884016E9, 0.0, 2025-03-31 14:25:24.884
44.0, 74.59791446616873, 66.46363206254318, -63.7896035942249, 102.2881337380968, 0.03200000151991844, 0.11200000531971455, 0.9920000471174717, 0.0, 0.0, 0.0, 0.0, 0.0, 1.7434275248840425E9, 0.0, 2025-03-31 14:25:24.884
45.0, 14.31446708040312, 1.090180837083608, 5.768795681651682, 44.82831081887707, 0.03200000151991844, 0.11200000531971455, 0.9920000471174717, 0.0, 0.0, 0.0, 0.0, 0.0, 1.743427524912105E9, 0.0, 2025-03-31 14:25:24.912
45.0, 28.185756016056985, 4.867479792330414, -22.168256987351924, 44.12894952716306, 0.03200000151991844, 0.11200000531971455, 0.9920000471174717, 0.0, 0.0, 0.0, 0.0, 0.0, 1.743427524912156E9, 0.0, 2025-03-31 14:25:24.912
46.0, 84.44881094945595, 74.44457856798545, -84.20945735229179, 104.92850310681388, 0.03200000151991844, 0.11200000531971455, 0.9920000471174717, 0.0, 0.0, 0.0, 0.0, 0.0, 1.7434275249128616E9, 0.0, 2025-03-31 14:25:24.912
46.0, 73.62180057773367, 67.89975364552811, -64.92653318075463, 101.22974205063656, 0.03200000151991844, 0.11200000531971455, 0.9920000471174717, 0.0, 0.0, 0.0, 0.0, 0.0, 1.7434275249129152E9, 0.0, 2025-03-31 14:25:24.912
47.0, 11.300107716117054, -2.930211615283042, 2.2794690229929984, 39.1100037866272, 0.03200000151991844, 0.11200000531971455, 0.9920000471174717, 0.0, 0.0, 0.0, 0.0, 0.0, 1.743427524942382E9, 0.0, 2025-03-31 14:25:24.942
47.0, 23.813812967855483, -5.308787987101823, -24.191542863380164, 43.32113113673404, 0.03200000151991844, 0.11200000531971455, 0.9920000471174717, 0.0, 0.0, 0.0, 0.0, 0.0, 1.7434275249424536E9, 0.0, 2025-03-31 14:25:24.942
48.0, 86.16542502911761, 68.19146584207192, -88.81327419774607, 108.72076166188344, 0.03200000151991844, 0.11200000531971455, 0.9920000471174717, 0.0, 0.0, 0.0, 0.0, 0.0, 1.7434275249425893E9, 0.0, 2025-03-31 14:25:24.942
48.0, 70.61492101335898, 62.1590072135441, -66.98347815638408, 105.66526339808479, 0.03200000151991844, 0.11200000531971455, 0.9920000471174717, 0.0, 0.0, 0.0, 0.0, 0.0, 1.7434275249426188E9, 0.0, 2025-03-31 14:25:24.942
49.0, 13.016721795778722, -7.9902962553314865, -1.1350596365518868, 44.10651012742892, 0.03200000151991844, 0.11200000531971455, 0.9920000471174717, 0.0, 0.0, 0.0, 0.0, 0.0, 1.743427524943163E9, 0.0, 2025-03-31 14:25:24.943
49.0, 25.5865255468525, 3.506156208459288, -22.145817587617785, 45.65482870908454, 0.03200000151991844, 0.11200000531971455, 0.9920000471174717, 0.0, 0.0, 0.0, 0.0, 0.0, 1.743427524943192E9, 0.0, 2025-03-31 14:25:24.943
50.0, 86.6890110229142, 73.81627537542954, -81.64014608273283, 107.86806447198614, 0.03200000151991844, 0.11200000531971455, 0.9920000471174717, 0.0, 0.0, 0.0, 0.0, 0.0, 1.743427524943974E9, 0.0, 2025-03-31 14:25:24.943
50.0, 73.12065398367122, 64.99011148000136, -57.00542507460341, 105.8859174954705, 0.03200000151991844, 0.11200000531971455, 0.9920000471174717, 0.0, 0.0, 0.0, 0.0, 0.0, 1.743427524944018E9, 0.0, 2025-03-31 14:25:24.944
51.0, 12.399638303089887, -0.8882262394763529, 0.723670641425997, 42.33005764847621, 0.03200000151991844, 0.11200000531971455, 0.9920000471174717, 0.0, 0.0, 0.0, 0.0, 0.0, 1.743427524972185E9, 0.0, 2025-03-31 14:25:24.972
51.0, 24.80488645611331, 5.065694489981979, -19.266094621736556, 41.98224695259705, 0.03200000151991844, 0.11200000531971455, 0.9920000471174717, 0.0, 0.0, 0.0, 0.0, 0.0, 1.7434275249722183E9, 0.0, 2025-03-31 14:25:24.972
52.0, 86.91714492021129, 71.85282789869234, -81.52046928415075, 107.52399367606267, 0.03200000151991844, 0.11200000531971455, 0.9920000471174717, 0.0, 0.0, 0.0, 0.0, 0.0, 1.7434275249725554E9, 0.0, 2025-03-31 14:25:24.972
52.0, 71.62095410143957, 65.70817227149382, -58.99131195107475, 100.23492866242304, 0.03200000151991844, 0.11200000531971455, 0.9920000471174717, 0.0, 0.0, 0.0, 0.0, 0.0, 1.74342752497258E9, 0.0, 2025-03-31 14:25:24.972
53.0, 14.007795284036547, -8.940230844076723, 2.533782219979912, 36.566871816758066, 0.03200000151991844, 0.11200000531971455, 0.9920000471174717, 0.0, 0.0, 0.0, 0.0, 0.0, 1.7434275250020676E9, 0.0, 2025-03-31 14:25:25.002
53.0, 25.014320853631943, -0.847087339963764, -25.96425544237718, 34.11723734578118, 0.03200000151991844, 0.11200000531971455, 0.9920000471174717, 0.0, 0.0, 0.0, 0.0, 0.0, 1.7434275250021057E9, 0.0, 2025-03-31 14:25:25.002
54.0, 93.8060406385921, 75.11402066005394, -76.48656394379213, 109.17328955652192, 0.03200000151991844, 0.11200000531971455, 0.9920000471174717, 0.0, 0.0, 0.0, 0.0, 0.0, 1.7434275250022871E9, 0.0, 2025-03-31 14:25:25.002
54.0, 72.5708886901848, 59.589695943985134, -56.309803682845086, 106.91812988324091, 0.03200000151991844, 0.11200000531971455, 0.9920000471174717, 0.0, 0.0, 0.0, 0.0, 0.0, 1.7434275250023284E9, 0.0, 2025-03-31 14:25:25.002
55.0, 9.987402831669897, -3.4089188096113503, 1.206117735709995, 42.689088044222444, 0.03200000151991844, 0.11200000531971455, 0.9920000471174717, 0.0, 0.0, 0.0, 0.0, 0.0, 1.7434275250031445E9, 0.0, 2025-03-31 14:25:25.003
55.0, 28.638283910695463, -0.26366294687613845, -14.770734874997288, 50.688734049443156, 0.03200000151991844, 0.11200000531971455, 0.9920000471174717, 0.0, 0.0, 0.0, 0.0, 0.0, 1.7434275250031807E9, 0.0, 2025-03-31 14:25:25.003
56.0, 92.77008835086599, 74.13416687166318, -74.91580596240237, 110.31021914305165, 0.03200000151991844, 0.11200000531971455, 0.9920000471174717, 0.0, 0.0, 0.0, 0.0, 0.0, 1.7434275250040731E9, 0.0, 2025-03-31 14:25:25.004
56.0, 76.65111954184249, 69.29473632900044, -50.09782985644415, 112.7374142142944, 0.03200000151991844, 0.11200000531971455, 0.9920000471174717, 0.0, 0.0, 0.0, 0.0, 0.0, 1.7434275250041106E9, 0.0, 2025-03-31 14:25:25.004
57.0, 23.57071947073564, 6.479376673232764, 7.156298565212637, 57.43177366955206, 0.03200000151991844, 0.11200000531971455, 0.9920000471174717, 0.0, 0.0, 0.0, 0.0, 0.0, 1.7434275250318825E9, 0.0, 2025-03-31 14:25:25.031
57.0, 34.966194635722786, 9.88268563291058, -14.737075775396079, 45.890442406293005, 0.03200000151991844, 0.11200000531971455, 0.9920000471174717, 0.0, 0.0, 0.0, 0.0, 0.0, 1.7434275250319333E9, 0.0, 2025-03-31 14:25:25.031
58.0, 86.27762202778831, 68.04560974380001, -76.9091726387851, 109.46500175306574, 0.03200000151991844, 0.11200000531971455, 0.9920000471174717, 0.0, 0.0, 0.0, 0.0, 0.0, 1.7434275250330036E9, 0.0, 2025-03-31 14:25:25.033
58.0, 68.11292794300243, 61.4559060218744, -59.84026924101636, 106.63763738656417, 0.03200000151991844, 0.11200000531971455, 0.9920000471174717, 0.0, 0.0, 0.0, 0.0, 0.0, 1.7434275250330515E9, 0.0, 2025-03-31 14:25:25.033
59.0, 9.620892636012286, -6.090427077841014, 6.2587225758470595, 37.486887205857784, 0.03200000151991844, 0.11200000531971455, 0.9920000471174717, 0.0, 0.0, 0.0, 0.0, 0.0, 1.7434275250623195E9, 0.0, 2025-03-31 14:25:25.062
59.0, 22.40761058451608, -0.30854174634441733, -24.73008845699951, 32.52030006470159, 0.03200000151991844, 0.11200000531971455, 0.9920000471174717, 0.0, 0.0, 0.0, 0.0, 0.0, 1.743427525062454E9, 0.0, 2025-03-31 14:25:25.062
60.0, 83.05382826598361, 67.0507963555865, -83.34928036248311, 101.0689263525419, 0.03200000151991844, 0.11200000531971455, 0.9920000471174717, 0.0, 0.0, 0.0, 0.0, 0.0, 1.7434275250625098E9, 0.0, 2025-03-31 14:25:25.062
60.0, 67.81373594654724, 62.028110715094954, -60.775244229938835, 101.58129264647141, 0.03200000151991844, 0.11200000531971455, 0.9920000471174717, 0.0, 0.0, 0.0, 0.0, 0.0, 1.7434275250627995E9, 0.0, 2025-03-31 14:25:25.062
61.0, 1.209857635665685, -9.923824532423168, 4.680484794545919, 38.88186988933012, 0.03200000151991844, 0.11200000531971455, 0.9920000471174717, 0.0, 0.0, 0.0, 0.0, 0.0, 1.7434275250636337E9, 0.0, 2025-03-31 14:25:25.063
61.0, 15.608472465071827, -3.6108734072186053, -16.67434395244345, 32.209888368379325, 0.03200000151991844, 0.11200000531971455, 0.9920000471174717, 0.0, 0.0, 0.0, 0.0, 0.0, 1.743427525063686E9, 0.0, 2025-03-31 14:25:25.063
62.0, 76.92787213856354, 61.530704020988196, -80.92582519119605, 107.17618298018351, 0.03200000151991844, 0.11200000531971455, 0.9920000471174717, 0.0, 0.0, 0.0, 0.0, 0.0, 1.7434275250639787E9, 0.0, 2025-03-31 14:25:25.063
62.0, 70.44662551535293, 59.32790294708684, -60.83134272927418, 106.75731418514624, 0.03200000151991844, 0.11200000531971455, 0.9920000471174717, 0.0, 0.0, 0.0, 0.0, 0.0, 1.743427525064032E9, 0.0, 2025-03-31 14:25:25.064
63.0, 8.368026150856167, -13.835759886074811, 0.48431704426184297, 42.81998454267159, 0.03200000151991844, 0.11200000531971455, 0.9920000471174717, 0.0, 0.0, 0.0, 0.0, 0.0, 1.743427525092355E9, 0.0, 2025-03-31 14:25:25.092
63.0, 24.70764905726537, -3.292981910984963, -23.52584067126736, 41.95606765290722, 0.03200000151991844, 0.11200000531971455, 0.9920000471174717, 0.0, 0.0, 0.0, 0.0, 0.0, 1.7434275250924304E9, 0.0, 2025-03-31 14:25:25.092
64.0, 85.08833384187892, 59.956206139642745, -86.10184672987089, 111.58552502794191, 0.03200000151991844, 0.11200000531971455, 0.9920000471174717, 0.0, 0.0, 0.0, 0.0, 0.0, 1.7434275250927784E9, 0.0, 2025-03-31 14:25:25.092
64.0, 73.33382828114554, 59.200746348593384, -62.10664861416444, 103.33904562564567, 0.03200000151991844, 0.11200000531971455, 0.9920000471174717, 0.0, 0.0, 0.0, 0.0, 0.0, 1.7434275250928109E9, 0.0, 2025-03-31 14:25:25.092
65.0, 6.812227769289166, -11.991989207919687, 0.7947287405841053, 37.76363980257884, 0.03200000151991844, 0.11200000531971455, 0.9920000471174717, 0.0, 0.0, 0.0, 0.0, 0.0, 1.743427525122406E9, 0.0, 2025-03-31 14:25:25.122
65.0, 28.37275101384148, -3.7155906059779227, -16.565886853728443, 40.15717577422038, 0.03200000151991844, 0.11200000531971455, 0.9920000471174717, 0.0, 0.0, 0.0, 0.0, 0.0, 1.7434275251224575E9, 0.0, 2025-03-31 14:25:25.122
66.0, 85.7241168343462, 64.29822998819873, -78.88757971534505, 98.993281877134, 0.03200000151991844, 0.11200000531971455, 0.9920000471174717, 0.0, 0.0, 0.0, 0.0, 0.0, 1.7434275251225967E9, 0.0, 2025-03-31 14:25:25.122
66.0, 68.61407453706488, 52.17347433185205, -64.6796997836791, 99.49068857124075, 0.03200000151991844, 0.11200000531971455, 0.9920000471174717, 0.0, 0.0, 0.0, 0.0, 0.0, 1.7434275251226296E9, 0.0, 2025-03-31 14:25:25.122
67.0, -0.723670641425997, -14.576260077301413, -7.010442466940731, 36.192881821189076, 0.03200000151991844, 0.11200000531971455, 0.9920000471174717, 0.0, 0.0, 0.0, 0.0, 0.0, 1.7434275251231096E9, 0.0, 2025-03-31 14:25:25.123
67.0, 18.858445526566356, -6.120346277486533, -34.92131583625451, 43.33235083660111, 0.03200000151991844, 0.11200000531971455, 0.9920000471174717, 0.0, 0.0, 0.0, 0.0, 0.0, 1.743427525123145E9, 0.0, 2025-03-31 14:25:25.123
68.0, 80.78370899287984, 59.85522884083912, -91.79023456247523, 103.43254312453791, 0.03200000151991844, 0.11200000531971455, 0.9920000471174717, 0.0, 0.0, 0.0, 0.0, 0.0, 1.7434275251239455E9, 0.0, 2025-03-31 14:25:25.123
68.0, 66.80022305855528, 57.36071557039395, -64.94523268053308, 102.30309333791956, 0.03200000151991844, 0.11200000531971455, 0.9920000471174717, 0.0, 0.0, 0.0, 0.0, 0.0, 1.7434275251239915E9, 0.0, 2025-03-31 14:25:25.123
69.0, 7.0628010663203895, -10.63066562404856, -5.01707579055801, 32.6624162630178, 0.03200000151991844, 0.11200000531971455, 0.9920000471174717, 0.0, 0.0, 0.0, 0.0, 0.0, 1.7434275251521254E9, 0.0, 2025-03-31 14:25:25.152
69.0, 20.72465560445562, -0.6376529424451292, -28.058599417563528, 37.93941510049626, 0.03200000151991844, 0.11200000531971455, 0.9920000471174717, 0.0, 0.0, 0.0, 0.0, 0.0, 1.7434275251521757E9, 0.0, 2025-03-31 14:25:25.152
