Sample Index, EXG Channel 0, EXG Channel 1, EXG Channel 2, EXG Channel 3, Accel Channel 0, Accel Channel 1, Accel Channel 2, Other, Other.1, Other.2, Other.3, Other.4, Timestamp, Marker Channel, Timestamp (Formatted)
0.0,-62.44697951013222,100.40322416042908,83.01268936647102,-212.06167723750696,0.0,0.0,0.0,0.0,0.0,0.0,0.0,0.0,1744621045.978259,9.0, 2025-04-14 09:57:25.978
1.0,-69.46677172696218,98.07700638798995,100.76225455617532,-206.10775650804865,0.0,0.0800000037997961,0.0,0.0,0.0,0.0,0.0,0.0,1744621045.979124,9.0, 2025-04-14 09:57:25.979
1.0,-63.243578200694174,100.00679476512596,98.72774898028,-188.410549917724,0.0,0.0800000037997961,0.0,0.0,0.0,0.0,0.0,0.0,1744621045.9792054,9.0, 2025-04-14 09:57:25.979
2.0,-54.08456320920959,99.15035767527296,94.81581362662835,-199.4881335864775,0.0160000007599592,0.0800000037997961,0.0,0.0,0.0,0.0,0.0,0.0,1744621046.008041,9.0, 2025-04-14 09:57:26.008
2.0,-61.36988832289353,94.53906102990732,85.66427843505517,-216.18304698867723,0.0160000007599592,0.0800000037997961,0.0,0.0,0.0,0.0,0.0,0.0,1744621046.008098,9.0, 2025-04-14 09:57:26.008
3.0,-67.43226615106687,90.27183518046512,96.75308180367574,-202.13598275510597,0.0160000007599592,0.0800000037997961,0.0,0.0,0.0,0.0,0.0,0.0,1744621046.0085375,9.0, 2025-04-14 09:57:26.008
3.0,-52.326810230035335,95.67225071648136,97.47862239507958,-193.89698315272108,0.0160000007599592,0.0800000037997961,0.0,0.0,0.0,0.0,0.0,0.0,1744621046.0085852,9.0, 2025-04-14 09:57:26.008
4.0,-46.85907649481669,97.69927649246527,84.66198524693027,-191.8923967764713,0.0160000007599592,0.0800000037997961,0.0,0.0,0.0,0.0,0.0,0.0,1744621046.0092664,9.0, 2025-04-14 09:57:26.009
4.0,-47.56965748639777,89.70337038720027,73.33382828114554,-208.57983037875965,0.0160000007599592,0.0800000037997961,0.0,0.0,0.0,0.0,0.0,0.0,1744621046.0093129,9.0, 2025-04-14 09:57:26.009
5.0,-54.03594450978562,90.70940347528084,89.94646388432011,-201.28328556520864,0.0160000007599592,0.0800000037997961,0.0,0.0,0.0,0.0,0.0,0.0,1744621046.0100887,9.0, 2025-04-14 09:57:26.010
5.0,-41.87752975383773,100.9567293538712,99.9544361657463,-184.60707166278732,0.0160000007599592,0.0800000037997961,0.0,0.0,0.0,0.0,0.0,0.0,1744621046.0101478,9.0, 2025-04-14 09:57:26.010
6.0,-47.20688719069585,88.67863779934123,74.57547506643459,-192.6702959672548,0.0160000007599592,0.0800000037997961,0.0,0.0,0.0,0.0,0.0,0.0,1744621046.0381024,9.0, 2025-04-14 09:57:26.038
6.0,-47.27046548994258,82.54894177196547,67.70901874778792,-191.89613667642695,0.0160000007599592,0.0800000037997961,0.0,0.0,0.0,0.0,0.0,0.0,1744621046.0381591,9.0, 2025-04-14 09:57:26.038
7.0,-55.146694796625525,77.85162742761895,85.17435154085979,-197.56582500925288,0.0160000007599592,0.0800000037997961,0.0,0.0,0.0,0.0,0.0,0.0,1744621046.0387769,9.0, 2025-04-14 09:57:26.038
7.0,-46.649642097298056,80.98566359048709,82.97903026686981,-175.3956980719231,0.0160000007599592,0.0800000037997961,0.0,0.0,0.0,0.0,0.0,0.0,1744621046.03889,9.0, 2025-04-14 09:57:26.038
8.0,-44.47676022304222,86.83112722123042,77.11860703630373,-181.87320479517803,0.0160000007599592,0.0800000037997961,0.0,0.0,0.0,0.0,0.0,0.0,1744621046.0683467,9.0, 2025-04-14 09:57:26.068
8.0,-52.5250249276869,66.88998065749183,59.35782214673236,-186.80239293677727,0.0160000007599592,0.0800000037997961,0.0,0.0,0.0,0.0,0.0,0.0,1744621046.0684357,9.0, 2025-04-14 09:57:26.068
9.0,-53.36650241771713,69.16757973050699,65.77175057074055,-176.79068075539544,0.0160000007599592,0.0800000037997961,0.0,0.0,0.0,0.0,0.0,0.0,1744621046.0687618,9.0, 2025-04-14 09:57:26.068
9.0,-43.80731813097373,76.14997294778004,43.119176539126784,-171.64831831632182,0.0160000007599592,0.0800000037997961,0.0,0.0,0.0,0.0,0.0,0.0,1744621046.068881,9.0, 2025-04-14 09:57:26.068
10.0,-24.81236625602469,94.10897253500298,-12.26126200472936,-150.2037319703959,0.0160000007599592,0.0800000037997961,0.9920000471174716,0.0,0.0,0.0,0.0,0.0,1744621046.0693276,9.0, 2025-04-14 09:57:26.069
10.0,-26.84687183192,93.92197753721848,-63.91302029276267,-157.75458998093382,0.0160000007599592,0.0800000037997961,0.9920000471174716,0.0,0.0,0.0,0.0,0.0,1744621046.069383,9.0, 2025-04-14 09:57:26.069
11.0,-27.392897225450724,93.75368203921244,-72.48861089115962,-148.019630396273,0.0160000007599592,0.0320000015199184,0.9920000471174716,0.0,0.0,0.0,0.0,0.0,1744621046.0703936,9.0, 2025-04-14 09:57:26.070
11.0,-15.399038067553192,96.55860700597988,-58.31065015913919,-134.46997285680845,0.0160000007599592,0.0320000015199184,0.9920000471174716,0.0,0.0,0.0,0.0,0.0,1744621046.070452,9.0, 2025-04-14 09:57:26.070
12.0,-15.11106577096507,100.85201215511188,-35.70669482694939,-139.0476104025729,0.0,0.0320000015199184,0.9920000471174716,0.0,0.0,0.0,0.0,0.0,1744621046.098131,9.0, 2025-04-14 09:57:26.098
12.0,-26.510280835907903,85.82509413314983,-33.395436654333025,-162.84833372058347,0.0,0.0320000015199184,0.9920000471174716,0.0,0.0,0.0,0.0,0.0,1744621046.0981934,9.0, 2025-04-14 09:57:26.098
13.0,-34.04617924662307,74.61661396594718,-9.979923031758515,-164.11615980556235,0.0,0.0320000015199184,0.9920000471174716,0.0,0.0,0.0,0.0,0.0,1744621046.0987856,9.0, 2025-04-14 09:57:26.098
13.0,-23.97088876599446,79.2765293107368,3.076067713554949,-155.00576351350173,0.0,0.0320000015199184,0.9920000471174716,0.0,0.0,0.0,0.0,0.0,1744621046.0988612,9.0, 2025-04-14 09:57:26.098
14.0,-25.421969948802143,79.13441311242059,16.390111555811018,-164.25827600387856,0.0,0.0320000015199184,0.9920000471174716,0.0,0.0,0.0,0.0,0.0,1744621046.128206,9.0, 2025-04-14 09:57:26.128
14.0,-35.3327048313804,62.46193910995498,20.859292002860457,-165.4662636895664,0.0,0.0320000015199184,0.9920000471174716,0.0,0.0,0.0,0.0,0.0,1744621046.128438,9.0, 2025-04-14 09:57:26.128
15.0,-37.73372060293332,69.21619842993096,45.27335891360417,-171.1733510219492,0.0,0.0320000015199184,0.9920000471174716,0.0,0.0,0.0,0.0,0.0,1744621046.128621,9.0, 2025-04-14 09:57:26.128
15.0,-31.461908377241343,64.88165438128635,53.80033081257716,-160.948464543093,0.0,0.0320000015199184,0.9920000471174716,0.0,0.0,0.0,0.0,0.0,1744621046.1286695,9.0, 2025-04-14 09:57:26.128
16.0,-24.213982263114303,72.67934578889981,60.14694103738293,-153.67809902923182,0.0,0.0320000015199184,0.9920000471174716,0.0,0.0,0.0,0.0,0.0,1744621046.1293352,9.0, 2025-04-14 09:57:26.129
16.0,-38.4817005940713,54.709126501809806,58.32934965891764,-169.6586915398948,0.0,0.0320000015199184,0.9920000471174716,0.0,0.0,0.0,0.0,0.0,1744621046.1293876,9.0, 2025-04-14 09:57:26.129
17.0,-40.14221617439762,50.5241784513928,71.50501720281318,-158.41655227309093,0.0,0.0320000015199184,0.9920000471174716,0.0,0.0,0.0,0.0,0.0,1744621046.1301973,9.0, 2025-04-14 09:57:26.130
17.0,-29.255367403384295,57.98153896303848,93.38343194359912,-155.9108193027787,0.0,0.0320000015199184,0.9920000471174716,0.0,0.0,0.0,0.0,0.0,1744621046.1302483,9.0, 2025-04-14 09:57:26.130
18.0,-35.69173522712663,53.74423231324181,81.12403988884762,-164.84544029692188,0.0,0.0320000015199184,0.9920000471174716,0.0,0.0,0.0,0.0,0.0,1744621046.1582754,9.0, 2025-04-14 09:57:26.158
18.0,-38.38820309517905,40.06367827532813,67.10315495496616,-163.74964960990474,0.0,0.0320000015199184,0.9920000471174716,0.0,0.0,0.0,0.0,0.0,1744621046.1583316,9.0, 2025-04-14 09:57:26.158
19.0,-42.06826465157792,42.51705264626071,84.0224623545073,-169.51657534157857,0.0,0.0320000015199184,0.9920000471174716,0.0,0.0,0.0,0.0,0.0,1744621046.1588004,9.0, 2025-04-14 09:57:26.158
19.0,-39.40545588312671,49.15163516765461,83.40911876177415,-154.5420159189962,0.0,0.0320000015199184,0.9920000471174716,0.0,0.0,0.0,0.0,0.0,1744621046.1588497,9.0, 2025-04-14 09:57:26.158
20.0,-39.450334682594985,43.6315428330563,72.30909569328651,-160.22666385164484,0.0,0.0320000015199184,0.5120000243186951,0.0,0.0,0.0,0.0,0.0,1744621046.1882496,9.0, 2025-04-14 09:57:26.188
20.0,-31.368410878349096,54.15936120832339,70.62614071322605,-162.2088108281605,0.0,0.0320000015199184,0.5120000243186951,0.0,0.0,0.0,0.0,0.0,1744621046.1883326,9.0, 2025-04-14 09:57:26.188
21.0,-43.69512113230303,46.96005379362032,68.14284714264795,-161.37481313804165,0.0,0.0640000030398368,0.5120000243186951,0.0,0.0,0.0,0.0,0.0,1744621046.1885953,9.0, 2025-04-14 09:57:26.188
21.0,-27.89030391955748,45.28831851342693,68.43829923914745,-151.8679874506779,0.0,0.0640000030398368,0.5120000243186951,0.0,0.0,0.0,0.0,0.0,1744621046.1886733,9.0, 2025-04-14 09:57:26.188
22.0,-30.179122692439705,56.98672557482496,72.34649469284341,-161.23269693972543,0.0160000007599592,0.0640000030398368,0.5120000243186951,0.0,0.0,0.0,0.0,0.0,1744621046.1893363,9.0, 2025-04-14 09:57:26.189
22.0,-38.11519039841369,46.05873790429905,62.41332041053101,-160.7652094452642,0.0160000007599592,0.0640000030398368,0.5120000243186951,0.0,0.0,0.0,0.0,0.0,1744621046.1894264,9.0, 2025-04-14 09:57:26.189
23.0,-45.20604071440175,35.53839932894334,71.7555904998444,-161.03074234211817,0.0160000007599592,0.0640000030398368,0.5120000243186951,0.0,0.0,0.0,0.0,0.0,1744621046.1900835,9.0, 2025-04-14 09:57:26.190
23.0,-35.796452425885946,36.9259022125043,78.24431692296639,-150.80585586326197,0.0160000007599592,0.0640000030398368,0.5120000243186951,0.0,0.0,0.0,0.0,0.0,1744621046.190163,9.0, 2025-04-14 09:57:26.190
24.0,-25.46310884831473,44.83205071883276,64.97889178013429,-154.6803922173567,0.0160000007599592,0.0640000030398368,0.5120000243186951,0.0,0.0,0.0,0.0,0.0,1744621046.218239,9.0, 2025-04-14 09:57:26.218
24.0,-35.22798763262108,34.54358594072983,60.36385523481295,-153.65565962949768,0.0160000007599592,0.0640000030398368,0.5120000243186951,0.0,0.0,0.0,0.0,0.0,1744621046.2183137,9.0, 2025-04-14 09:57:26.218
25.0,-46.58232389809564,29.73033469775692,77.4626778322272,-165.41390509018674,0.0160000007599592,0.0640000030398368,0.5120000243186951,0.0,0.0,0.0,0.0,0.0,1744621046.2188673,9.0, 2025-04-14 09:57:26.218
25.0,-40.84531736606732,36.23402072070167,78.13585982425138,-144.21989204129204,0.0160000007599592,0.0640000030398368,0.5120000243186951,0.0,0.0,0.0,0.0,0.0,1744621046.2189708,9.0, 2025-04-14 09:57:26.218
26.0,-31.488087676931173,36.48459401773289,59.40644084615633,-147.85507479822263,0.0160000007599592,0.0640000030398368,0.5120000243186951,0.0,0.0,0.0,0.0,0.0,1744621046.248112,9.0, 2025-04-14 09:57:26.248
26.0,-36.28263942012563,37.99551359983161,51.65736813796684,-153.59208133025095,0.0160000007599592,0.0640000030398368,0.5120000243186951,0.0,0.0,0.0,0.0,0.0,1744621046.2482438,9.0, 2025-04-14 09:57:26.248
27.0,-43.96065402915701,39.21472098538652,59.00253165094182,-146.59846841311082,0.0160000007599592,0.0640000030398368,0.5120000243186951,0.0,0.0,0.0,0.0,0.0,1744621046.248499,9.0, 2025-04-14 09:57:26.248
27.0,-36.15548282163218,35.95352822402492,53.69935351377353,-144.43680623872206,0.0160000007599592,0.0640000030398368,0.5120000243186951,0.0,0.0,0.0,0.0,0.0,1744621046.2486355,9.0, 2025-04-14 09:57:26.248
28.0,-26.154990340117365,40.04871867550537,50.58775675063953,-131.94554038671777,0.0160000007599592,0.0640000030398368,0.5120000243186951,0.0,0.0,0.0,0.0,0.0,1744621046.2493148,9.0, 2025-04-14 09:57:26.249
28.0,-35.437422030139714,34.962454735767096,45.1499422150664,-157.54515558341518,0.0160000007599592,0.0640000030398368,0.5120000243186951,0.0,0.0,0.0,0.0,0.0,1744621046.249395,9.0, 2025-04-14 09:57:26.249
29.0,-39.24464018503204,36.80622541392222,58.59488255577162,-139.8255095933564,0.0160000007599592,0.0640000030398368,0.5120000243186951,0.0,0.0,0.0,0.0,0.0,1744621046.2510228,9.0, 2025-04-14 09:57:26.251
29.0,-33.54877255251631,36.46589451795444,64.05513649107888,-139.3430624990724,0.0160000007599592,0.0640000030398368,0.5120000243186951,0.0,0.0,0.0,0.0,0.0,1744621046.2511654,9.0, 2025-04-14 09:57:26.251
30.0,-32.85315116075799,32.32208536705002,50.84580984758213,-143.37467465130612,0.0160000007599592,0.0640000030398368,0.7520000357180834,0.0,0.0,0.0,0.0,0.0,1744621046.278155,9.0, 2025-04-14 09:57:26.278
30.0,-36.65288951573893,29.52090030023828,41.410042259376496,-140.28925718786195,0.0160000007599592,0.0640000030398368,0.7520000357180834,0.0,0.0,0.0,0.0,0.0,1744621046.2782192,9.0, 2025-04-14 09:57:26.278
31.0,-38.593897592742,29.075852205511183,50.90938814682886,-147.6867793002166,0.0160000007599592,0.0640000030398368,0.7520000357180834,0.0,0.0,0.0,0.0,0.0,1744621046.279084,9.0, 2025-04-14 09:57:26.279
31.0,-27.22834162740037,38.12641009828076,45.05644471617416,-130.92080779885873,0.0160000007599592,0.0640000030398368,0.7520000357180834,0.0,0.0,0.0,0.0,0.0,1744621046.2792573,9.0, 2025-04-14 09:57:26.279
32.0,-28.234374715480957,35.57953822845593,30.257660591509197,-137.35717562260106,0.0160000007599592,0.0640000030398368,0.7520000357180834,0.0,0.0,0.0,0.0,0.0,1744621046.3083558,9.0, 2025-04-14 09:57:26.308
32.0,-35.26538663217798,27.93144281907007,31.719961474183947,-151.28456305759028,0.0160000007599592,0.0640000030398368,0.7520000357180834,0.0,0.0,0.0,0.0,0.0,1744621046.3084354,9.0, 2025-04-14 09:57:26.308
33.0,-35.09709113417193,29.412443201523278,42.60681024519727,-129.51460541551933,0.0160000007599592,0.0640000030398368,0.7520000357180834,0.0,0.0,0.0,0.0,0.0,1744621046.308535,9.0, 2025-04-14 09:57:26.308
33.0,-25.96051554242149,37.67014230368659,35.94978832406923,-142.43969966238365,0.0160000007599592,0.0640000030398368,0.7520000357180834,0.0,0.0,0.0,0.0,0.0,1744621046.3085868,9.0, 2025-04-14 09:57:26.308
34.0,-8.532581748906523,38.34706419566646,20.26090800995007,-134.3465561582707,0.0160000007599592,0.0640000030398368,0.7520000357180834,0.0,0.0,0.0,0.0,0.0,1744621046.309343,9.0, 2025-04-14 09:57:26.309
34.0,-18.806086927186698,38.219907597173005,7.257275864016265,-138.77833760576323,0.0160000007599592,0.0640000030398368,0.7520000357180834,0.0,0.0,0.0,0.0,0.0,1744621046.309466,9.0, 2025-04-14 09:57:26.309
35.0,-27.63973062252626,38.4069025949575,21.379138096701357,-128.99101942172274,0.0160000007599592,0.0640000030398368,0.7520000357180834,0.0,0.0,0.0,0.0,0.0,1744621046.310038,9.0, 2025-04-14 09:57:26.310
35.0,-21.34173909714445,36.604270816314965,18.488195430953056,-126.24219295429066,0.0160000007599592,0.0640000030398368,0.7520000357180834,0.0,0.0,0.0,0.0,0.0,1744621046.3100824,9.0, 2025-04-14 09:57:26.310
36.0,-7.605086559895426,38.40316269500181,16.26669485727325,-125.34461696492508,0.0160000007599592,0.0640000030398368,0.7520000357180834,0.0,0.0,0.0,0.0,0.0,1744621046.338581,9.0, 2025-04-14 09:57:26.338
36.0,-31.016860282514244,28.32413231441751,3.655752206686884,-138.7858174056746,0.0160000007599592,0.0640000030398368,0.7520000357180834,0.0,0.0,0.0,0.0,0.0,1744621046.3386793,9.0, 2025-04-14 09:57:26.338
37.0,-21.296860297676176,34.76797993807122,25.30977295013145,-123.02213909244163,0.0160000007599592,0.0640000030398368,0.7520000357180834,0.0,0.0,0.0,0.0,0.0,1744621046.3390703,9.0, 2025-04-14 09:57:26.339
37.0,-21.65215079346672,40.27685257280245,31.390850278083235,-128.08970353240147,0.0160000007599592,0.0640000030398368,0.7520000357180834,0.0,0.0,0.0,0.0,0.0,1744621046.3391385,9.0, 2025-04-14 09:57:26.339
38.0,-15.986202360596508,33.30567905539647,21.08742590015754,-118.49312024610116,0.0160000007599592,0.0640000030398368,0.7520000357180834,0.0,0.0,0.0,0.0,0.0,1744621046.3684824,9.0, 2025-04-14 09:57:26.368
38.0,-19.277314321603622,20.72091570449993,18.27128123352304,-132.24473238317296,0.0160000007599592,0.0640000030398368,0.7520000357180834,0.0,0.0,0.0,0.0,0.0,1744621046.3687372,9.0, 2025-04-14 09:57:26.368
39.0,-26.154990340117365,22.852658679243177,33.017706758808345,-130.80861080018803,0.0160000007599592,0.0640000030398368,0.7520000357180834,0.0,0.0,0.0,0.0,0.0,1744621046.3689404,9.0, 2025-04-14 09:57:26.368
39.0,-22.80030007986352,26.69353593373671,28.275513614993542,-114.8878566888161,0.0160000007599592,0.0640000030398368,0.7520000357180834,0.0,0.0,0.0,0.0,0.0,1744621046.3690293,9.0, 2025-04-14 09:57:26.369
40.0,-25.05545975314453,28.05485951760784,26.15873024007305,-135.33388974657282,0.0160000007599592,0.0640000030398368,0.8800000417977571,0.0,0.0,0.0,0.0,0.0,1744621046.3694856,9.0, 2025-04-14 09:57:26.369
40.0,-30.975721383001652,21.44271639594808,30.84482488455251,-137.32351652299985,0.0160000007599592,0.0640000030398368,0.8800000417977571,0.0,0.0,0.0,0.0,0.0,1744621046.369569,9.0, 2025-04-14 09:57:26.369
41.0,-37.25501340860501,15.88896496174857,34.75676023820415,-138.37442841054872,0.0160000007599592,0.0800000037997961,0.8800000417977571,0.0,0.0,0.0,0.0,0.0,1744621046.3706908,9.0, 2025-04-14 09:57:26.370
41.0,-26.74589453311637,21.19962289882824,37.471927606035024,-121.5560983098112,0.0160000007599592,0.0800000037997961,0.8800000417977571,0.0,0.0,0.0,0.0,0.0,1744621046.3710003,9.0, 2025-04-14 09:57:26.371
42.0,-17.212889546062797,24.494474759791046,33.24584065610543,-118.0705115511082,0.0160000007599592,0.0800000037997961,0.8800000417977571,0.0,0.0,0.0,0.0,0.0,1744621046.3981962,9.0, 2025-04-14 09:57:26.398
42.0,-35.1457098335959,12.388418603222815,23.67543666949496,-145.7906500226818,0.0160000007599592,0.0800000037997961,0.8800000417977571,0.0,0.0,0.0,0.0,0.0,1744621046.3982546,9.0, 2025-04-14 09:57:26.398
43.0,-30.39603688986972,17.46346284309402,34.70440163882449,-125.51291246293113,0.0160000007599592,0.0800000037997961,0.8800000417977571,0.0,0.0,0.0,0.0,0.0,1744621046.3989084,9.0, 2025-04-14 09:57:26.398
43.0,-21.59231239417568,28.664463210385293,36.06572522269562,-111.24145423201844,0.0160000007599592,0.0800000037997961,0.8800000417977571,0.0,0.0,0.0,0.0,0.0,1744621046.3989592,9.0, 2025-04-14 09:57:26.398
44.0,-25.721161945257336,19.93927661376074,19.393251220230013,-120.93527491716668,0.0160000007599592,0.0800000037997961,0.8800000417977571,0.0,0.0,0.0,0.0,0.0,1744621046.4280431,9.0, 2025-04-14 09:57:26.428
44.0,-29.37504420196637,19.75602151593193,14.995128872338682,-119.0354057396762,0.0160000007599592,0.0800000037997961,0.8800000417977571,0.0,0.0,0.0,0.0,0.0,1744621046.4281323,9.0, 2025-04-14 09:57:26.428
45.0,-29.251627503428608,23.409903772640973,30.059445893857628,-130.5580375031568,0.0160000007599592,0.0800000037997961,0.8800000417977571,0.0,0.0,0.0,0.0,0.0,1744621046.4285183,9.0, 2025-04-14 09:57:26.428
45.0,-21.06872640037909,28.249334315303717,30.70270868623629,-102.7705808323808,0.0160000007599592,0.0800000037997961,0.8800000417977571,0.0,0.0,0.0,0.0,0.0,1744621046.428618,9.0, 2025-04-14 09:57:26.428
46.0,-15.817906862590462,28.193235815968364,20.032774112652987,-123.7028008843772,0.0160000007599592,0.0800000037997961,0.8800000417977571,0.0,0.0,0.0,0.0,0.0,1744621046.4292872,9.0, 2025-04-14 09:57:26.429
46.0,-21.53247399488464,20.649857605341825,16.390111555811018,-133.12734877271578,0.0160000007599592,0.0800000037997961,0.8800000417977571,0.0,0.0,0.0,0.0,0.0,1744621046.4293463,9.0, 2025-04-14 09:57:26.429
47.0,-23.49966137157753,20.649857605341825,28.971135006751865,-121.12226991495118,0.0160000007599592,0.0800000037997961,0.8800000417977571,0.0,0.0,0.0,0.0,0.0,1744621046.4301932,9.0, 2025-04-14 09:57:26.430
47.0,-19.12771832337603,18.7312889280729,36.996960311662406,-124.4133818759583,0.0160000007599592,0.0800000037997961,0.8800000417977571,0.0,0.0,0.0,0.0,0.0,1744621046.430246,9.0, 2025-04-14 09:57:26.430
48.0,-11.87231240933761,20.941569801885635,29.808872596826404,-123.05579819204286,0.0160000007599592,0.0800000037997961,0.8800000417977571,0.0,0.0,0.0,0.0,0.0,1744621046.4581892,9.0, 2025-04-14 09:57:26.458
48.0,-19.96919581340626,15.219522869680077,26.71597533347085,-131.88196208747104,0.0160000007599592,0.0800000037997961,0.8800000417977571,0.0,0.0,0.0,0.0,0.0,1744621046.4582975,9.0, 2025-04-14 09:57:26.458
49.0,-23.74275486869737,10.563347424846144,41.75037315534428,-122.3339975005947,0.0160000007599592,0.0800000037997961,0.8800000417977571,0.0,0.0,0.0,0.0,0.0,1744621046.4588425,9.0, 2025-04-14 09:57:26.458
49.0,-9.83406693348661,14.542600977700204,53.77415151288733,-116.73536726692691,0.0160000007599592,0.0800000037997961,0.8800000417977571,0.0,0.0,0.0,0.0,0.0,1744621046.4589126,9.0, 2025-04-14 09:57:26.458
50.0,-9.175844541285189,15.571073465514928,46.53744509862736,-123.078237591777,0.0160000007599592,0.0800000037997961,0.944000044837594,0.0,0.0,0.0,0.0,0.0,1744621046.4880698,9.0, 2025-04-14 09:57:26.488
50.0,-14.052674083504826,11.46092341421172,28.35031161410734,-129.60436301445588,0.0160000007599592,0.0800000037997961,0.944000044837594,0.0,0.0,0.0,0.0,0.0,1744621046.4881332,9.0, 2025-04-14 09:57:26.488
51.0,-21.820446291472763,7.747202758211642,36.263939920347184,-126.91537494631484,0.0160000007599592,0.0800000037997961,0.944000044837594,0.0,0.0,0.0,0.0,0.0,1744621046.4886649,9.0, 2025-04-14 09:57:26.488
51.0,-15.814166962634772,12.594113100785762,28.971135006751865,-100.92681015422568,0.0160000007599592,0.0800000037997961,0.944000044837594,0.0,0.0,0.0,0.0,0.0,1744621046.4887192,9.0, 2025-04-14 09:57:26.488
52.0,-10.2828549281694,17.598099241498858,12.21638320526108,-114.45776819391176,0.0160000007599592,0.0800000037997961,0.944000044837594,0.0,0.0,0.0,0.0,0.0,1744621046.4890976,9.0, 2025-04-14 09:57:26.489
52.0,-20.34692570893094,10.170657929498702,-5.286348587367684,-121.9300883053802,0.0160000007599592,0.0800000037997961,0.944000044837594,0.0,0.0,0.0,0.0,0.0,1744621046.489147,9.0, 2025-04-14 09:57:26.489
53.0,-24.79740665620193,13.09151979489252,-0.0542285493575036,-121.91886860551313,0.0160000007599592,0.0800000037997961,0.944000044837594,0.0,0.0,0.0,0.0,0.0,1744621046.490163,9.0, 2025-04-14 09:57:26.490
53.0,-17.392404743935913,20.83685260312632,1.172458636108786,-93.89953813748434,0.0160000007599592,0.0800000037997961,0.944000044837594,0.0,0.0,0.0,0.0,0.0,1744621046.4903064,9.0, 2025-04-14 09:57:26.490
54.0,-14.351866079960018,22.478668683674183,-7.320854163262993,-105.49696790007874,0.0160000007599592,0.0800000037997961,0.944000044837594,0.0,0.0,0.0,0.0,0.0,1744621046.5181935,9.0, 2025-04-14 09:57:26.518
54.0,-27.10118502890691,7.717283558566123,-9.179584441240875,-118.10043075075372,0.0160000007599592,0.0800000037997961,0.944000044837594,0.0,0.0,0.0,0.0,0.0,1744621046.5184915,9.0, 2025-04-14 09:57:26.518
55.0,-24.16536356369033,18.35729893250391,9.83406693348661,-112.91692941216752,0.0160000007599592,0.0800000037997961,0.944000044837594,0.0,0.0,0.0,0.0,0.0,1744621046.519121,9.0, 2025-04-14 09:57:26.519
55.0,-16.206856457982212,16.977275848854333,16.416290855500847,-109.8165523489006,0.0160000007599592,0.0800000037997961,0.944000044837594,0.0,0.0,0.0,0.0,0.0,1744621046.519182,9.0, 2025-04-14 09:57:26.519
56.0,-18.641531329136345,10.761562122497708,9.202023840975016,-107.78578667296097,0.0160000007599592,0.0800000037997961,0.944000044837594,0.0,0.0,0.0,0.0,0.0,1744621046.548306,9.0, 2025-04-14 09:57:26.548
56.0,-26.140030740294605,10.533428225200623,5.061954590026289,-122.91742189368232,0.0160000007599592,0.0800000037997961,0.944000044837594,0.0,0.0,0.0,0.0,0.0,1744621046.5483716,9.0, 2025-04-14 09:57:26.548
57.0,-27.6247710227035,13.8394997860305,12.919484396930784,-119.3009386365302,0.0160000007599592,0.0800000037997961,0.944000044837594,0.0,0.0,0.0,0.0,0.0,1744621046.5485277,9.0, 2025-04-14 09:57:26.548
57.0,-23.271527474280447,12.444517102558166,16.607025753241032,-105.42216990096496,0.0160000007599592,0.0800000037997961,0.944000044837594,0.0,0.0,0.0,0.0,0.0,1744621046.548586,9.0, 2025-04-14 09:57:26.548
58.0,-14.134951882530004,19.1389380232431,9.957483632024378,-107.41553657734768,0.0160000007599592,0.0800000037997961,0.944000044837594,0.0,0.0,0.0,0.0,0.0,1744621046.5493,9.0, 2025-04-14 09:57:26.549
58.0,-26.255967638920996,7.646225459408015,6.0567679782398045,-119.7048478317447,0.0160000007599592,0.0800000037997961,0.944000044837594,0.0,0.0,0.0,0.0,0.0,1744621046.5493808,9.0, 2025-04-14 09:57:26.549
59.0,-26.31206613825634,14.7295959754847,32.42680256580934,-103.79531342023984,0.0160000007599592,0.0800000037997961,0.944000044837594,0.0,0.0,0.0,0.0,0.0,1744621046.5500631,9.0, 2025-04-14 09:57:26.550
59.0,-22.632004581857476,18.918283925857395,41.15946896234527,-116.90740266488864,0.0160000007599592,0.0800000037997961,0.944000044837594,0.0,0.0,0.0,0.0,0.0,1744621046.550105,9.0, 2025-04-14 09:57:26.550
60.0,-20.515221206936985,11.397345114964992,32.654936463106424,-110.4037166419439,0.0160000007599592,0.0800000037997961,0.9760000463575124,0.0,0.0,0.0,0.0,0.0,1744621046.5782366,9.0, 2025-04-14 09:57:26.578
60.0,-30.76628698548302,8.28574835183099,27.063786029350013,-119.98160042846575,0.0160000007599592,0.0800000037997961,0.9760000463575124,0.0,0.0,0.0,0.0,0.0,1744621046.578298,9.0, 2025-04-14 09:57:26.578
61.0,-35.15318963350728,6.363439774606377,44.43936122348532,-114.83549808943644,0.0160000007599592,0.0800000037997961,0.9760000463575124,0.0,0.0,0.0,0.0,0.0,1744621046.5788083,9.0, 2025-04-14 09:57:26.578
61.0,-26.068972641136497,4.463570597115904,36.675328915473074,-109.56223915191369,0.0160000007599592,0.0800000037997961,0.9760000463575124,0.0,0.0,0.0,0.0,0.0,1744621046.5789433,9.0, 2025-04-14 09:57:26.578
62.0,-15.49253556644544,15.215782969724389,25.706202345434576,-104.9247632068582,0.0160000007599592,0.0800000037997961,0.9760000463575124,0.0,0.0,0.0,0.0,0.0,1744621046.608071,9.0, 2025-04-14 09:57:26.608
62.0,-29.10951130511239,4.414951897691935,17.616798741277307,-111.41722952993588,0.0160000007599592,0.0800000037997961,0.9760000463575124,0.0,0.0,0.0,0.0,0.0,1744621046.6081505,9.0, 2025-04-14 09:57:26.608
63.0,-29.64431699877605,-0.0953674488700926,31.435729077551517,-117.53196595748886,0.0160000007599592,0.0800000037997961,0.9760000463575124,0.0,0.0,0.0,0.0,0.0,1744621046.608457,9.0, 2025-04-14 09:57:26.608
63.0,-19.1763370228,6.759869169909507,38.96788758831099,-110.44859544141218,0.0160000007599592,0.0800000037997961,0.9760000463575124,0.0,0.0,0.0,0.0,0.0,1744621046.6085043,9.0, 2025-04-14 09:57:26.608
64.0,-20.48904190724716,9.265602140221745,28.54104651184753,-105.28753350256012,0.0160000007599592,0.0800000037997961,0.9760000463575124,0.0,0.0,0.0,0.0,0.0,1744621046.609216,9.0, 2025-04-14 09:57:26.609
64.0,-27.849165020044893,6.692550970707089,20.25342821003869,-120.62112332088871,0.0160000007599592,0.0800000037997961,0.9760000463575124,0.0,0.0,0.0,0.0,0.0,1744621046.6092615,9.0, 2025-04-14 09:57:26.609
65.0,-28.533566711936142,-0.6189534426666796,23.12567137600854,-115.91632917663082,0.0160000007599592,0.0800000037997961,0.9760000463575124,0.0,0.0,0.0,0.0,0.0,1744621046.610082,9.0, 2025-04-14 09:57:26.610
65.0,-17.91973063768819,8.420384750235826,26.51776063581929,-105.93453619489446,0.0160000007599592,0.0800000037997961,0.9760000463575124,0.0,0.0,0.0,0.0,0.0,1744621046.6101491,9.0, 2025-04-14 09:57:26.610
66.0,-12.478176202159377,7.017922266852111,5.353666786570102,-103.85889171948656,0.0160000007599592,0.0800000037997961,0.9760000463575124,0.0,0.0,0.0,0.0,0.0,1744621046.6379852,9.0, 2025-04-14 09:57:26.637
66.0,-23.338845673482865,7.107679865788668,4.762762593571097,-113.64620990352704,0.0160000007599592,0.0800000037997961,0.9760000463575124,0.0,0.0,0.0,0.0,0.0,1744621046.6380396,9.0, 2025-04-14 09:57:26.638
67.0,-29.24414770351723,5.910911879967898,18.170303934719414,-131.92310098698363,0.0160000007599592,0.0800000037997961,0.9760000463575124,0.0,0.0,0.0,0.0,0.0,1744621046.63888,9.0, 2025-04-14 09:57:26.638
67.0,-20.575059606228024,7.616306259762496,19.89439781429246,-104.71532880933955,0.0160000007599592,0.0800000037997961,0.9760000463575124,0.0,0.0,0.0,0.0,0.0,1744621046.638926,9.0, 2025-04-14 09:57:26.638
68.0,-17.609318941365927,4.362593298312277,7.309634463395923,-109.91004984779283,0.0160000007599592,0.0800000037997961,0.9760000463575124,0.0,0.0,0.0,0.0,0.0,1744621046.6683533,9.0, 2025-04-14 09:57:26.668
68.0,-23.19672947516665,1.4230319331400096,-3.192004612181336,-120.02273932797834,0.0160000007599592,0.0800000037997961,0.9760000463575124,0.0,0.0,0.0,0.0,0.0,1744621046.6685667,9.0, 2025-04-14 09:57:26.668
69.0,-27.70704882172868,-2.6833782182075083,12.25752210477367,-110.13444384513424,0.0160000007599592,0.0800000037997961,0.9760000463575124,0.0,0.0,0.0,0.0,0.0,1744621046.6689584,9.0, 2025-04-14 09:57:26.668
69.0,-18.48071563104168,9.691950735170394,21.450196195859466,-85.51468243682757,0.0160000007599592,0.0800000037997961,0.9760000463575124,0.0,0.0,0.0,0.0,0.0,1744621046.6690252,9.0, 2025-04-14 09:57:26.669
70.0,-15.219522869680077,3.532335508149117,-0.6488726423121989,-113.2198613085784,0.0160000007599592,0.0800000037997961,0.9760000463575124,0.0,0.0,0.0,0.0,0.0,1744621046.6700292,9.0, 2025-04-14 09:57:26.670
70.0,-23.20420927507803,0.5404155435971916,-5.391065786127001,-108.12611756892876,0.0160000007599592,0.0800000037997961,0.9760000463575124,0.0,0.0,0.0,0.0,0.0,1744621046.6700957,9.0, 2025-04-14 09:57:26.670
71.0,-21.44271639594808,-2.22711042361334,3.0461485139094293,-105.1042784047313,0.0160000007599592,0.0800000037997961,0.9760000463575124,0.0,0.0,0.0,0.0,0.0,1744621046.670292,9.0, 2025-04-14 09:57:26.670
71.0,-20.03651401260868,0.3309811460785568,8.68591764708981,-87.67634461121634,0.0160000007599592,0.0800000037997961,0.9760000463575124,0.0,0.0,0.0,0.0,0.0,1744621046.6703477,9.0, 2025-04-14 09:57:26.670
72.0,-13.009241995867342,6.105386677663773,-0.6526125422678888,-105.26135420287028,0.0160000007599592,0.0800000037997961,0.9760000463575124,0.0,0.0,0.0,0.0,0.0,1744621046.6984413,9.0, 2025-04-14 09:57:26.698
72.0,-23.065832976717505,0.1552058481611311,-6.355959974694997,-108.29815296689048,0.0160000007599592,0.0800000037997961,0.9760000463575124,0.0,0.0,0.0,0.0,0.0,1744621046.6986036,9.0, 2025-04-14 09:57:26.698
73.0,-25.380831049289554,-0.3459407459013164,4.037222002167255,-104.5133742117323,0.0160000007599592,0.0800000037997961,0.9760000463575124,0.0,0.0,0.0,0.0,0.0,1744621046.6994965,9.0, 2025-04-14 09:57:26.699
73.0,-17.388664843980223,6.801008069422096,3.614613307174295,-95.88916491391136,0.0160000007599592,0.0800000037997961,0.9760000463575124,0.0,0.0,0.0,0.0,0.0,1744621046.6995788,9.0, 2025-04-14 09:57:26.699
74.0,-17.47468254296109,6.565394372213632,-2.2719892230816185,-92.16048465808854,0.0160000007599592,0.0800000037997961,0.9760000463575124,0.0,0.0,0.0,0.0,0.0,1744621046.7288153,9.0, 2025-04-14 09:57:26.728
74.0,-25.13025775225833,-7.582647160161287,-4.983416690956801,-117.72270085522904,0.0160000007599592,0.0800000037997961,0.9760000463575124,0.0,0.0,0.0,0.0,0.0,1744621046.7288988,9.0, 2025-04-14 09:57:26.728
75.0,-31.02060018246993,-4.396252397913486,9.370319338981062,-97.1794303986244,0.0160000007599592,0.0800000037997961,0.9760000463575124,0.0,0.0,0.0,0.0,0.0,1744621046.7290187,9.0, 2025-04-14 09:57:26.729
75.0,-21.438976495992392,2.257029623258859,17.025894548278302,-96.81666010292248,0.0160000007599592,0.0800000037997961,0.9760000463575124,0.0,0.0,0.0,0.0,0.0,1744621046.7290847,9.0, 2025-04-14 09:57:26.729
76.0,-18.40591763192788,-2.8292343164794147,5.364886486437172,-104.86118490761146,0.0160000007599592,0.0800000037997961,0.9760000463575124,0.0,0.0,0.0,0.0,0.0,1744621046.72925,9.0, 2025-04-14 09:57:26.729
76.0,-22.018660989124328,-4.2466563996858895,6.266202375758439,-102.7369217327796,0.0160000007599592,0.0800000037997961,0.9760000463575124,0.0,0.0,0.0,0.0,0.0,1744621046.7293427,9.0, 2025-04-14 09:57:26.729
77.0,-29.850011496338997,0.039268949534744,31.25995377963409,-106.7348747854121,0.0160000007599592,0.0800000037997961,0.9760000463575124,0.0,0.0,0.0,0.0,0.0,1744621046.730157,9.0, 2025-04-14 09:57:26.730
77.0,-21.237021898385137,-1.0527818375267088,41.34646396012977,-95.97518261289224,0.0160000007599592,0.0800000037997961,0.9760000463575124,0.0,0.0,0.0,0.0,0.0,1744621046.7302127,9.0, 2025-04-14 09:57:26.730
78.0,-21.046287000644952,3.539815308060497,28.896337007638067,-103.59709872258829,0.0160000007599592,0.0800000037997961,0.9760000463575124,0.0,0.0,0.0,0.0,0.0,1744621046.7585108,9.0, 2025-04-14 09:57:26.758
78.0,-25.077899152878672,-3.7305502058006814,6.744909570086747,-115.53485938115044,0.0160000007599592,0.0800000037997961,0.9760000463575124,0.0,0.0,0.0,0.0,0.0,1744621046.758577,9.0, 2025-04-14 09:57:26.758
79.0,-25.45936894835904,-1.542708731722087,17.44476334331557,-116.41747577069329,0.0160000007599592,0.0800000037997961,0.9760000463575124,0.0,0.0,0.0,0.0,0.0,1744621046.7586622,9.0, 2025-04-14 09:57:26.758
79.0,-17.325086544733495,3.992343202698976,19.015521324705333,-90.93753737257794,0.0160000007599592,0.0800000037997961,0.9760000463575124,0.0,0.0,0.0,0.0,0.0,1744621046.758766,9.0, 2025-04-14 09:57:26.758
80.0,-14.105032682884485,0.7872489406727254,2.458984220866114,-102.86407833127303,0.0160000007599592,0.0800000037997961,0.9920000471174716,0.0,0.0,0.0,0.0,0.0,1744621046.788558,9.0, 2025-04-14 09:57:26.788
80.0,-25.48554824804887,-7.982816455420107,-4.586987295653671,-116.82512486586349,0.0160000007599592,0.0800000037997961,0.9920000471174716,0.0,0.0,0.0,0.0,0.0,1744621046.7887204,9.0, 2025-04-14 09:57:26.788
81.0,-27.50883412407711,-10.488549425732344,9.819107333663853,-97.68431689264251,0.0160000007599592,0.0800000037997961,0.9920000471174716,0.0,0.0,0.0,0.0,0.0,1744621046.7888052,9.0, 2025-04-14 09:57:26.788
81.0,-22.10841858806089,-3.4874567086808383,18.144124635029584,-95.56753351772204,0.0160000007599592,0.0800000037997961,0.9920000471174716,0.0,0.0,0.0,0.0,0.0,1744621046.7888749,9.0, 2025-04-14 09:57:26.788
82.0,-28.75422080932185,-6.6626317710615695,8.24834935227409,-106.33470549015328,0.0160000007599592,0.0800000037997961,0.9920000471174716,0.0,0.0,0.0,0.0,0.0,1744621046.800024,9.0, 2025-04-14 09:57:26.800
82.0,-31.114097681362185,-16.064740259665996,7.257275864016265,-117.0382991633378,0.0160000007599592,0.0800000037997961,0.9920000471174716,0.0,0.0,0.0,0.0,0.0,1744621046.8000722,9.0, 2025-04-14 09:57:26.800
83.0,-33.58617155207321,-10.552127724979073,23.72031546896324,-112.78977281367406,0.0160000007599592,0.0800000037997961,0.9920000471174716,0.0,0.0,0.0,0.0,0.0,1744621046.8001156,9.0, 2025-04-14 09:57:26.800
83.0,-21.334259297233075,-9.299261239822954,49.72757976083085,-110.64307023910806,0.0160000007599592,0.0800000037997961,0.9920000471174716,0.0,0.0,0.0,0.0,0.0,1744621046.8001633,9.0, 2025-04-14 09:57:26.800
84.0,-27.830465520266443,-14.998868772294372,59.53733734460548,-110.53087324043736,0.0160000007599592,0.0800000037997961,0.9920000471174716,0.0,0.0,0.0,0.0,0.0,1744621046.818509,9.0, 2025-04-14 09:57:26.818
84.0,-35.12701033381745,-25.15269715199247,46.96379369357601,-137.1552210249938,0.0160000007599592,0.0800000037997961,0.9920000471174716,0.0,0.0,0.0,0.0,0.0,1744621046.8185737,9.0, 2025-04-14 09:57:26.818
85.0,-28.87015770794824,-8.932751044165343,36.645409715827554,-93.20391674572602,0.0160000007599592,0.0800000037997961,0.9920000471174716,0.0,0.0,0.0,0.0,0.0,1744621046.818747,9.0, 2025-04-14 09:57:26.818
85.0,-13.259815292898566,1.1051404369063675,10.66432472364977,-89.60613298835233,0.0160000007599592,0.0800000037997961,0.9920000471174716,0.0,0.0,0.0,0.0,0.0,1744621046.818844,9.0, 2025-04-14 09:57:26.818
86.0,-5.260169287677854,4.265355899464339,-23.48844167171046,-93.2487955451943,0.0160000007599592,0.0800000037997961,0.9920000471174716,0.0,0.0,0.0,0.0,0.0,1744621046.878173,9.0, 2025-04-14 09:57:26.878
86.0,-12.193943805526942,-0.7274105413816869,-35.29904573177919,-94.93549042521045,0.0160000007599592,0.0800000037997961,0.9920000471174716,0.0,0.0,0.0,0.0,0.0,1744621046.878235,9.0, 2025-04-14 09:57:26.878
87.0,-18.787387427408248,0.1626856480725109,-27.808026120532304,-91.73787596309558,0.0160000007599592,0.0800000037997961,0.9920000471174716,0.0,0.0,0.0,0.0,0.0,1744621046.87856,9.0, 2025-04-14 09:57:26.878
87.0,-6.195144276600331,-0.6600923421792686,-37.52802610537037,-83.40537886181846,0.0160000007599592,0.0800000037997961,0.9920000471174716,0.0,0.0,0.0,0.0,0.0,1744621046.878651,9.0, 2025-04-14 09:57:26.878
88.0,-1.9466179269365969,2.8367141163907945,-50.46434005210176,-91.30404756823556,0.0160000007599592,0.0800000037997961,0.9920000471174716,0.0,0.0,0.0,0.0,0.0,1744621046.879346,9.0, 2025-04-14 09:57:26.879
88.0,-18.544293930288404,3.386479409877211,-40.56856476934627,-93.54798754164948,0.0160000007599592,0.0800000037997961,0.9920000471174716,0.0,0.0,0.0,0.0,0.0,1744621046.8794923,9.0, 2025-04-14 09:57:26.879
89.0,-19.26983452169225,-7.620046159718186,-27.419076525140557,-95.62737191701308,0.0160000007599592,0.0800000037997961,0.9920000471174716,0.0,0.0,0.0,0.0,0.0,1744621046.8799648,9.0, 2025-04-14 09:57:26.879
89.0,-9.187064241152257,-0.7012312416918576,-25.5865255468525,-83.20342426421121,0.0160000007599592,0.0800000037997961,0.9920000471174716,0.0,0.0,0.0,0.0,0.0,1744621046.8800423,9.0, 2025-04-14 09:57:26.880
90.0,-7.339553663041443,9.08234704239294,-41.95980755286291,-93.1739975460805,0.0160000007599592,0.0800000037997961,0.9920000471174716,0.0,0.0,0.0,0.0,0.0,1744621046.8805065,9.0, 2025-04-14 09:57:26.880
90.0,-12.594113100785762,-1.4342516330070794,-53.07479022117332,-89.71832998702303,0.0160000007599592,0.0800000037997961,0.9920000471174716,0.0,0.0,0.0,0.0,0.0,1744621046.880555,9.0, 2025-04-14 09:57:26.880
91.0,-13.09151979489252,-3.102247013244778,-30.642870286945254,-92.770088350866,0.0160000007599592,0.0800000037997961,0.9920000471174716,0.0,0.0,0.0,0.0,0.0,1744621046.8811717,9.0, 2025-04-14 09:57:26.881
91.0,-13.966656384523958,-0.7984686405397952,-18.993081924971197,-86.872266120743,0.0160000007599592,0.0800000037997961,0.9920000471174716,0.0,0.0,0.0,0.0,0.0,1744621046.881224,9.0, 2025-04-14 09:57:26.881
92.0,-12.968103096354753,1.613766830880195,-23.753974568564445,-96.18461701041088,0.0160000007599592,0.0800000037997961,0.9920000471174716,0.0,0.0,0.0,0.0,0.0,1744621046.882223,9.0, 2025-04-14 09:57:26.882
92.0,-21.270680997986343,-3.386479409877211,-20.00659481296316,-107.12382438080384,0.0160000007599592,0.0800000037997961,0.9920000471174716,0.0,0.0,0.0,0.0,0.0,1744621046.8822832,9.0, 2025-04-14 09:57:26.882
93.0,-27.26948052691296,1.9204386272467675,-10.009842231404036,-96.67080400465056,0.0160000007599592,0.0800000037997961,0.9920000471174716,0.0,0.0,0.0,0.0,0.0,1744621046.9081364,9.0, 2025-04-14 09:57:26.908
93.0,-12.26500190468505,7.9491573558188975,0.6226933426223695,-88.09147350629792,0.0160000007599592,0.0800000037997961,0.9920000471174716,0.0,0.0,0.0,0.0,0.0,1744621046.908224,9.0, 2025-04-14 09:57:26.908
94.0,-11.06449401890859,5.593020383734256,-23.712835669051856,-98.2864407855086,0.0160000007599592,0.0800000037997961,0.9920000471174716,0.0,0.0,0.0,0.0,0.0,1744621046.9089477,9.0, 2025-04-14 09:57:26.908
94.0,-17.325086544733495,-0.9592843386344612,-45.32945741293952,-97.4711425951682,0.0160000007599592,0.0800000037997961,0.9920000471174716,0.0,0.0,0.0,0.0,0.0,1744621046.908996,9.0, 2025-04-14 09:57:26.908
95.0,-17.407364343758672,0.6226933426223695,-36.17418232141063,-93.36473244382069,0.0160000007599592,0.0800000037997961,0.9920000471174716,0.0,0.0,0.0,0.0,0.0,1744621046.9381392,9.0, 2025-04-14 09:57:26.938
95.0,-9.650811835657803,8.042654854711145,-31.914436271879826,-82.82195446873084,0.0160000007599592,0.0800000037997961,0.9920000471174716,0.0,0.0,0.0,0.0,0.0,1744621046.9383438,9.0, 2025-04-14 09:57:26.938
96.0,-5.899692180100828,7.115159665700048,-40.49376677023247,-90.18955738143995,0.0160000007599592,0.0800000037997961,0.9920000471174716,0.0,0.0,0.0,0.0,0.0,1744621046.9387553,9.0, 2025-04-14 09:57:26.938
96.0,-14.516421678010374,-3.03492881404236,-33.30941895535216,-104.9247632068582,0.0160000007599592,0.0800000037997961,0.9920000471174716,0.0,0.0,0.0,0.0,0.0,1744621046.938816,9.0, 2025-04-14 09:57:26.938
97.0,-18.525594430509955,-1.905479027424008,-7.646225459408015,-90.60094637656584,0.0160000007599592,0.0800000037997961,0.9920000471174716,0.0,0.0,0.0,0.0,0.0,1744621046.939238,9.0, 2025-04-14 09:57:26.939
97.0,-16.461169654969126,-4.994636390823871,-7.174998064991087,-92.504555454012,0.0160000007599592,0.0800000037997961,0.9920000471174716,0.0,0.0,0.0,0.0,0.0,1744621046.9393036,9.0, 2025-04-14 09:57:26.939
98.0,-12.347279703710228,-2.847933816257864,-13.10647939471528,-88.9853095957078,0.0160000007599592,0.0800000037997961,0.9920000471174716,0.0,0.0,0.0,0.0,0.0,1744621046.9401703,9.0, 2025-04-14 09:57:26.940
98.0,-21.237021898385137,-0.7348903412930667,-20.52644090680405,-103.81401292001829,0.0160000007599592,0.0800000037997961,0.9920000471174716,0.0,0.0,0.0,0.0,0.0,1744621046.9402783,9.0, 2025-04-14 09:57:26.940
99.0,-22.613305082079023,-12.904524797108024,-13.9142977851443,-89.2097035930492,0.0160000007599592,0.0800000037997961,0.9920000471174716,0.0,0.0,0.0,0.0,0.0,1744621046.9684377,9.0, 2025-04-14 09:57:26.968
99.0,-12.586633300874382,-1.164978836197406,-10.159438229631633,-89.62857238808647,0.0160000007599592,0.0800000037997961,0.9920000471174716,0.0,0.0,0.0,0.0,0.0,1744621046.9686368,9.0, 2025-04-14 09:57:26.968
100.0,0.2150442474521696,5.510742584709078,-19.729842216242105,-84.72182364622131,0.0160000007599592,0.0800000037997961,0.9920000471174716,0.0,0.0,0.0,0.0,0.0,1744621046.968768,9.0, 2025-04-14 09:57:26.968
100.0,-21.218322398606688,-9.624632535967976,-24.13544436404481,-101.14746425161138,0.0160000007599592,0.0800000037997961,0.9920000471174716,0.0,0.0,0.0,0.0,0.0,1744621046.9688337,9.0, 2025-04-14 09:57:26.968
0.0,-21.78117734193802,-1.7820623288862407,-0.3085417463444173,-90.28866473026574,0.0160000007599592,0.0800000037997961,0.9920000471174716,0.0,0.0,0.0,0.0,0.0,1744621046.969941,9.0, 2025-04-14 09:57:26.969
1.0,-14.768864925019445,-3.5622547077946365,8.996329343412071,-84.43946119956672,0.0160000007599592,0.0800000037997961,0.9920000471174716,0.0,0.0,0.0,0.0,0.0,1744621046.998174,9.0, 2025-04-14 09:57:26.998
1.0,-6.608403221704066,-4.826340892817825,5.301308187190443,-106.531050237827,0.0160000007599592,0.0800000037997961,0.9920000471174716,0.0,0.0,0.0,0.0,0.0,1744621046.99833,9.0, 2025-04-14 09:57:26.998
2.0,-18.594782579690214,-9.774228534195572,-4.5271488963626325,-105.05378975532948,0.0160000007599592,0.0800000037997961,0.9920000471174716,0.0,0.0,0.0,0.0,0.0,1744621046.9985728,9.0, 2025-04-14 09:57:26.998
2.0,-17.555090392008424,-10.421231226529926,8.057614454533905,-96.50437845662236,0.0160000007599592,0.0800000037997961,0.9920000471174716,0.0,0.0,0.0,0.0,0.0,1744621046.9986372,9.0, 2025-04-14 09:57:26.998
3.0,-7.438661011867225,-1.41181223327294,5.907171980012208,-84.34970360063016,0.0160000007599592,0.0800000037997961,0.9920000471174716,0.0,0.0,0.0,0.0,0.0,1744621046.9996395,9.0, 2025-04-14 09:57:26.999
3.0,-7.722893408499658,-0.6002539428882301,-8.26704885205254,-92.66350120212884,0.0160000007599592,0.0800000037997961,0.9920000471174716,0.0,0.0,0.0,0.0,0.0,1744621046.9997344,9.0, 2025-04-14 09:57:26.999
4.0,-22.20378603693098,-4.119499801192433,-15.51497496617958,-97.25235844776034,0.0160000007599592,0.0800000037997961,0.9920000471174716,0.0,0.0,0.0,0.0,0.0,1744621047.028241,9.0, 2025-04-14 09:57:27.028
4.0,-18.991211974993348,-11.139292018022388,-5.316267787013203,-98.20603293646128,0.0160000007599592,0.0800000037997961,0.9920000471174716,0.0,0.0,0.0,0.0,0.0,1744621047.0282972,9.0, 2025-04-14 09:57:27.028
5.0,-7.382562512531877,-1.9952366263605652,0.8171681403182447,-80.53500564582646,0.0160000007599592,0.0800000037997961,0.9920000471174716,0.0,0.0,0.0,0.0,0.0,1744621047.028495,9.0, 2025-04-14 09:57:27.028
5.0,-9.69382068514824,1.7409234293736515,-8.072574054356664,-98.53888403251769,0.0160000007599592,0.0800000037997961,0.9920000471174716,0.0,0.0,0.0,0.0,0.0,1744621047.0285642,9.0, 2025-04-14 09:57:27.028
6.0,-20.89482105243951,-3.01622931426391,-10.798961122054608,-99.34670242294668,0.0160000007599592,0.0800000037997961,0.9920000471174716,0.0,0.0,0.0,0.0,0.0,1744621047.0294564,9.0, 2025-04-14 09:57:27.029
6.0,-25.244324700906876,-8.981369743589312,1.9428780269809067,-101.50836459733546,0.0160000007599592,0.0800000037997961,0.9920000471174716,0.0,0.0,0.0,0.0,0.0,1744621047.029539,9.0, 2025-04-14 09:57:27.029
7.0,-11.29823776613921,-1.40433243336156,8.469003449659795,-81.25306643731892,0.0160000007599592,0.0800000037997961,0.9920000471174716,0.0,0.0,0.0,0.0,0.0,1744621047.0581129,9.0, 2025-04-14 09:57:27.058
7.0,-11.915321258828044,-8.083793754223734,-0.1065871487371623,-99.9750056155026,0.0160000007599592,0.0800000037997961,0.9920000471174716,0.0,0.0,0.0,0.0,0.0,1744621047.0582252,9.0, 2025-04-14 09:57:27.058
8.0,-22.21126583684236,-14.894151573535057,-5.675298182759434,-97.70862624235453,0.0160000007599592,0.0800000037997961,0.9920000471174716,0.0,0.0,0.0,0.0,0.0,1744621047.0585122,9.0, 2025-04-14 09:57:27.058
8.0,-23.587549020536244,-7.874359356705099,-1.8792997277341783,-94.42873398121446,0.0160000007599592,0.0800000037997961,0.9920000471174716,0.0,0.0,0.0,0.0,0.0,1744621047.0586965,9.0, 2025-04-14 09:57:27.058
9.0,-18.228272384032607,-10.63814542395994,0.9630242385901512,-85.31833768915385,0.0160000007599592,0.0800000037997961,0.9920000471174716,0.0,0.0,0.0,0.0,0.0,1744621047.059477,9.0, 2025-04-14 09:57:27.059
9.0,-21.216452448628843,-12.874605597462503,-8.199730652850121,-86.95267396979034,0.0160000007599592,0.0800000037997961,0.9920000471174716,0.0,0.0,0.0,0.0,0.0,1744621047.059538,9.0, 2025-04-14 09:57:27.059
10.0,-27.40972677525133,-15.974982660729438,-10.077160430606456,-95.24029227159916,0.0160000007599592,0.0800000037997961,0.9920000471174716,0.0,0.0,0.0,0.0,0.0,1744621047.088544,9.0, 2025-04-14 09:57:27.088
10.0,-23.202339325100183,-14.228449381422251,-2.458984220866114,-84.37588290032,0.0160000007599592,0.0800000037997961,0.9920000471174716,0.0,0.0,0.0,0.0,0.0,1744621047.0886767,9.0, 2025-04-14 09:57:27.088
11.0,-17.020284698344767,-16.524747954215854,-12.926964196842164,-78.8894496653229,0.0160000007599592,0.0800000037997961,0.9920000471174716,0.0,0.0,0.0,0.0,0.0,1744621047.088797,9.0, 2025-04-14 09:57:27.088
11.0,-15.838476312346756,-12.145325106102971,-20.64611770538613,-90.8571295235306,0.0160000007599592,0.0800000037997961,0.9920000471174716,0.0,0.0,0.0,0.0,0.0,1744621047.088899,9.0, 2025-04-14 09:57:27.088
12.0,-24.286910312250257,-19.9542362135835,-23.10697187623009,-88.54213145095855,0.0160000007599592,0.0800000037997961,0.9920000471174716,0.0,0.0,0.0,0.0,0.0,1744621047.0894277,9.0, 2025-04-14 09:57:27.089
12.0,-23.078922626562417,-15.724409363698214,-8.540061548817903,-91.40315491706131,0.0160000007599592,0.0800000037997961,0.9920000471174716,0.0,0.0,0.0,0.0,0.0,1744621047.0895257,9.0, 2025-04-14 09:57:27.089
13.0,-23.38933432288468,-7.130119265522808,-5.002116190735251,-87.53609836287796,0.0160000007599592,0.0800000037997961,0.9920000471174716,0.0,0.0,0.0,0.0,0.0,1744621047.1184564,9.0, 2025-04-14 09:57:27.118
13.0,-13.976006134413185,-5.282608687411994,-9.86024623317644,-85.64370898529887,0.0160000007599592,0.0800000037997961,0.9920000471174716,0.0,0.0,0.0,0.0,0.0,1744621047.1186545,9.0, 2025-04-14 09:57:27.118
14.0,-22.529157333076,-9.658291635569183,-8.409165050368756,-91.05908412113786,0.0160000007599592,0.0800000037997961,0.9920000471174716,0.0,0.0,0.0,0.0,0.0,1744621047.1190643,9.0, 2025-04-14 09:57:27.119
14.0,-21.182793349027637,-14.348126180004328,-0.3272412461228668,-102.85846848133951,0.0160000007599592,0.0800000037997961,0.9920000471174716,0.0,0.0,0.0,0.0,0.0,1744621047.1191883,9.0, 2025-04-14 09:57:27.119
15.0,-15.64400151465088,-11.315067315939814,13.94421698478982,-84.74987289588898,0.0160000007599592,0.0800000037997961,0.9920000471174716,0.0,0.0,0.0,0.0,0.0,1744621047.119923,9.0, 2025-04-14 09:57:27.119
15.0,-10.254805678501723,-11.599299712572249,5.981969979126006,-94.84012297634035,0.0160000007599592,0.0800000037997961,0.9920000471174716,0.0,0.0,0.0,0.0,0.0,1744621047.1200423,9.0, 2025-04-14 09:57:27.120
16.0,-17.540130792185664,-15.761808363255112,3.498676408547908,-99.3093034233898,0.0160000007599592,0.0800000037997961,0.9920000471174716,0.0,0.0,0.0,0.0,0.0,1744621047.148158,9.0, 2025-04-14 09:57:27.148
16.0,-26.65052708424628,-22.27297418611124,18.63405152922496,-92.55878400336952,0.0160000007599592,0.0800000037997961,0.9920000471174716,0.0,0.0,0.0,0.0,0.0,1744621047.1482427,9.0, 2025-04-14 09:57:27.148
17.0,-25.39392069913447,-10.780261622276155,30.459615189116448,-101.0146978031844,0.0160000007599592,0.0800000037997961,0.9920000471174716,0.0,0.0,0.0,0.0,0.0,1744621047.1485786,9.0, 2025-04-14 09:57:27.148
17.0,-24.761877606622875,-12.25752210477367,32.52403996465728,-99.09986902587116,0.0160000007599592,0.0800000037997961,0.9920000471174716,0.0,0.0,0.0,0.0,0.0,1744621047.1486647,9.0, 2025-04-14 09:57:27.148
18.0,-29.50407075043768,-26.966548630502075,32.97656785929576,-107.29398982878774,0.0160000007599592,0.0800000037997961,0.9920000471174716,0.0,0.0,0.0,0.0,0.0,1744621047.149603,9.0, 2025-04-14 09:57:27.149
18.0,-30.58116193767637,-21.334259297233075,39.04642548738048,-113.21425145864488,0.0160000007599592,0.0800000037997961,0.9920000471174716,0.0,0.0,0.0,0.0,0.0,1744621047.1496572,9.0, 2025-04-14 09:57:27.149
19.0,-18.748118477873504,-15.832866462413222,34.06487874640152,-88.68050774931908,0.0160000007599592,0.0800000037997961,0.9920000471174716,0.0,0.0,0.0,0.0,0.0,1744621047.1781263,9.0, 2025-04-14 09:57:27.178
19.0,-16.57149670366198,-10.488549425732344,21.53247399488464,-105.65591364819556,0.0160000007599592,0.0800000037997961,0.9920000471174716,0.0,0.0,0.0,0.0,0.0,1744621047.1782444,9.0, 2025-04-14 09:57:27.178
20.0,-27.129234278574582,-15.204563269857315,-0.0130896498449146,-102.75749118253589,0.0160000007599592,0.0800000037997961,1.008000047877431,0.0,0.0,0.0,0.0,0.0,1744621047.1785183,9.0, 2025-04-14 09:57:27.178
20.0,-29.133820654824376,-20.156190811190758,-7.477929961401969,-97.1626008488238,0.0160000007599592,0.0800000037997961,1.008000047877431,0.0,0.0,0.0,0.0,0.0,1744621047.1785643,9.0, 2025-04-14 09:57:27.178
21.0,-13.68803383782506,-8.783155045937747,-26.37190453754738,-81.76917263120413,0.0160000007599592,0.0800000037997961,1.008000047877431,0.0,0.0,0.0,0.0,0.0,1744621047.1795447,9.0, 2025-04-14 09:57:27.179
21.0,-12.46134665235877,-6.109126577619463,-57.62250856729224,-86.08875708002597,0.0160000007599592,0.0800000037997961,1.008000047877431,0.0,0.0,0.0,0.0,0.0,1744621047.179598,9.0, 2025-04-14 09:57:27.179
22.0,-16.388241605833173,-13.278514792677017,-78.8352211159654,-86.47396677546203,0.0160000007599592,0.0800000037997961,1.008000047877431,0.0,0.0,0.0,0.0,0.0,1744621047.208063,9.0, 2025-04-14 09:57:27.208
22.0,-12.315490554086864,-5.02455559046939,-65.71191217144951,-87.0424315687269,0.0160000007599592,0.0800000037997961,1.008000047877431,0.0,0.0,0.0,0.0,0.0,1744621047.2082045,9.0, 2025-04-14 09:57:27.208
23.0,-8.145502103492618,-5.106833389494568,-66.87502105766907,-78.63887636829168,0.0160000007599592,0.0800000037997961,1.008000047877431,0.0,0.0,0.0,0.0,0.0,1744621047.20847,9.0, 2025-04-14 09:57:27.208
23.0,-9.772358584217727,4.168118500616401,-52.296891030389816,-81.33908413629979,0.0160000007599592,0.0800000037997961,1.008000047877431,0.0,0.0,0.0,0.0,0.0,1744621047.2085187,9.0, 2025-04-14 09:57:27.208
24.0,-20.397414358332757,-6.045548278372735,-42.5581915457733,-90.41956122871488,0.0160000007599592,0.0800000037997961,1.008000047877431,0.0,0.0,0.0,0.0,0.0,1744621047.2094617,9.0, 2025-04-14 09:57:27.209
24.0,-30.91027313377708,-5.540661784354597,-14.505201978143305,-94.17068088427186,0.0160000007599592,0.0800000037997961,1.008000047877431,0.0,0.0,0.0,0.0,0.0,1744621047.2095456,9.0, 2025-04-14 09:57:27.209
25.0,-20.27773755975068,3.782908805180341,-11.131812218111008,-87.42390136420727,0.0160000007599592,0.0800000037997961,1.008000047877431,0.0,0.0,0.0,0.0,0.0,1744621047.2380624,9.0, 2025-04-14 09:57:27.238
25.0,-16.021731410175562,-0.2187841474078595,-11.700277011375874,-91.27599831856789,0.0160000007599592,0.0800000037997961,1.008000047877431,0.0,0.0,0.0,0.0,0.0,1744621047.238156,9.0, 2025-04-14 09:57:27.238
26.0,-24.59732200857252,-13.951696784701198,-23.9185301666148,-99.69451311882584,0.0160000007599592,0.0800000037997961,1.008000047877431,0.0,0.0,0.0,0.0,0.0,1744621047.2385294,9.0, 2025-04-14 09:57:27.238
26.0,-27.54436317365617,-15.679530564229935,-15.608472465071827,-96.33234305866064,0.0160000007599592,0.0800000037997961,1.008000047877431,0.0,0.0,0.0,0.0,0.0,1744621047.2386072,9.0, 2025-04-14 09:57:27.238
27.0,-12.816637148149312,-6.726210070308298,-13.712343187537044,-103.29229687619954,0.0160000007599592,0.0800000037997961,1.008000047877431,0.0,0.0,0.0,0.0,0.0,1744621047.2394128,9.0, 2025-04-14 09:57:27.239
27.0,-18.430226981639866,-8.203470552805811,-19.774721015710384,-91.14136192016304,0.0160000007599592,0.0800000037997961,1.008000047877431,0.0,0.0,0.0,0.0,0.0,1744621047.2394955,9.0, 2025-04-14 09:57:27.239
28.0,-22.802170029841363,-9.916344732511789,-12.336060003843158,-93.53115799184889,0.0160000007599592,0.0800000037997961,1.008000047877431,0.0,0.0,0.0,0.0,0.0,1744621047.2685547,9.0, 2025-04-14 09:57:27.268
28.0,-28.389580563642085,-13.5066486899741,3.7978684050031006,-101.37372819893062,0.0160000007599592,0.0800000037997961,1.008000047877431,0.0,0.0,0.0,0.0,0.0,1744621047.2687173,9.0, 2025-04-14 09:57:27.268
29.0,-17.517691392451525,-2.889072715770453,13.802100786473602,-83.16415531467646,0.0160000007599592,0.0800000037997961,1.008000047877431,0.0,0.0,0.0,0.0,0.0,1744621047.2981095,9.0, 2025-04-14 09:57:27.298
29.0,-15.984332410618665,-3.341600610408932,4.014782602433115,-106.157060242258,0.0160000007599592,0.0800000037997961,1.008000047877431,0.0,0.0,0.0,0.0,0.0,1744621047.2981966,9.0, 2025-04-14 09:57:27.298
30.0,-23.77080411836505,-6.464417073410004,-8.308187751565129,-101.89357429277152,0.0160000007599592,0.0800000037997961,0.9920000471174716,0.0,0.0,0.0,0.0,0.0,1744621047.2985003,9.0, 2025-04-14 09:57:27.298
30.0,-23.505271221511062,-5.679038082715124,3.184524812269956,-95.3001306708902,0.0160000007599592,0.0800000037997961,0.9920000471174716,0.0,0.0,0.0,0.0,0.0,1744621047.298616,9.0, 2025-04-14 09:57:27.298
31.0,-13.209326643496752,-6.513035772833973,1.9503578268922863,-88.35887635312974,0.0160000007599592,0.0800000037997961,0.9920000471174716,0.0,0.0,0.0,0.0,0.0,1744621047.2993069,9.0, 2025-04-14 09:57:27.299
31.0,-14.305117330513896,-1.8718199278227985,-9.908864932600409,-79.83564435411245,0.0160000007599592,0.0800000037997961,0.9920000471174716,0.0,0.0,0.0,0.0,0.0,1744621047.2993996,9.0, 2025-04-14 09:57:27.299
32.0,-21.508164645172656,-8.323147351387888,-15.301800668705257,-109.0180837083608,0.0160000007599592,0.0800000037997961,0.9920000471174716,0.0,0.0,0.0,0.0,0.0,1744621047.2999537,9.0, 2025-04-14 09:57:27.299
32.0,-20.04212386254221,-10.151958429720253,-4.512189296539873,-93.03375129774211,0.0160000007599592,0.0800000037997961,0.9920000471174716,0.0,0.0,0.0,0.0,0.0,1744621047.300042,9.0, 2025-04-14 09:57:27.300
33.0,-14.993258922360836,-3.01248941430822,-0.2487033470533788,-87.98488635756075,0.0160000007599592,0.0800000037997961,0.9920000471174716,0.0,0.0,0.0,0.0,0.0,1744621047.3008597,9.0, 2025-04-14 09:57:27.300
33.0,-5.658468632958829,-2.171011924277991,-14.011535183992237,-88.66554814949632,0.0160000007599592,0.0800000037997961,0.9920000471174716,0.0,0.0,0.0,0.0,0.0,1744621047.3009615,9.0, 2025-04-14 09:57:27.300
34.0,-21.526864144951105,-12.418337802868336,-25.350911849644035,-103.6101883724332,0.0160000007599592,0.0800000037997961,0.9920000471174716,0.0,0.0,0.0,0.0,0.0,1744621047.328071,9.0, 2025-04-14 09:57:27.328
34.0,-11.417914564721286,-8.66347824735567,-8.573720648419112,-92.42414760496467,0.0160000007599592,0.0800000037997961,0.9920000471174716,0.0,0.0,0.0,0.0,0.0,1744621047.3281927,9.0, 2025-04-14 09:57:27.328
35.0,-13.923647535033524,-2.4664640207774937,-7.732243158388883,-88.70294714905322,0.0160000007599592,0.0800000037997961,0.9920000471174716,0.0,0.0,0.0,0.0,0.0,1744621047.3284435,9.0, 2025-04-14 09:57:27.328
35.0,-10.88310887105763,2.320607922505588,-19.15763752302155,-88.62066935002804,0.0160000007599592,0.0800000037997961,0.9920000471174716,0.0,0.0,0.0,0.0,0.0,1744621047.3285,9.0, 2025-04-14 09:57:27.328
36.0,-22.09906883817166,-5.765055781695992,-17.45598304318264,-91.48169281613082,0.0160000007599592,0.0800000037997961,0.9920000471174716,0.0,0.0,0.0,0.0,0.0,1744621047.3294945,9.0, 2025-04-14 09:57:27.329
36.0,-20.726525554433465,-7.548988060560077,-1.6960446299053729,-113.62564045377076,0.0160000007599592,0.0800000037997961,0.9920000471174716,0.0,0.0,0.0,0.0,0.0,1744621047.329548,9.0, 2025-04-14 09:57:27.329
37.0,-15.427087317220868,1.2210773355327549,3.9736437029205263,-64.8461253317073,0.0160000007599592,0.0800000037997961,0.9920000471174716,0.0,0.0,0.0,0.0,0.0,1744621047.358126,9.0, 2025-04-14 09:57:27.358
37.0,-18.385348182171583,1.82694112835452,0.9331050389446318,-89.03953814506531,0.0160000007599592,0.0800000037997961,0.9920000471174716,0.0,0.0,0.0,0.0,0.0,1744621047.3581808,9.0, 2025-04-14 09:57:27.358
38.0,-27.966971868649125,-10.72042322298512,-5.207810688298196,-102.52187748532742,0.0160000007599592,0.0800000037997961,0.9920000471174716,0.0,0.0,0.0,0.0,0.0,1744621047.3584752,9.0, 2025-04-14 09:57:27.358
38.0,-36.033936073072255,-6.3783993744291365,0.1664255480282008,-97.55155044421554,0.0160000007599592,0.0800000037997961,0.9920000471174716,0.0,0.0,0.0,0.0,0.0,1744621047.3585324,9.0, 2025-04-14 09:57:27.358
39.0,-28.32974216435105,-5.929611379746348,8.106233153957874,-87.88016915880144,0.0160000007599592,0.0800000037997961,0.9920000471174716,0.0,0.0,0.0,0.0,0.0,1744621047.3594806,9.0, 2025-04-14 09:57:27.359
39.0,-21.126694849692285,-7.82574065728113,0.8396075400523841,-92.73081940133125,0.0160000007599592,0.0800000037997961,0.9920000471174716,0.0,0.0,0.0,0.0,0.0,1744621047.359533,9.0, 2025-04-14 09:57:27.359
40.0,-31.912566321901977,-14.6547979763709,-3.1508657126687467,-101.44104639813304,0.0160000007599592,0.0800000037997961,0.9920000471174716,0.0,0.0,0.0,0.0,0.0,1744621047.3881507,9.0, 2025-04-14 09:57:27.388
40.0,-30.98881103284657,-4.919838391710073,11.756375510711225,-86.58990367408842,0.0160000007599592,0.0800000037997961,0.9920000471174716,0.0,0.0,0.0,0.0,0.0,1744621047.3882067,9.0, 2025-04-14 09:57:27.388
41.0,-22.342162335291505,-2.084994225297123,17.03337434818968,-95.95087326318026,0.0160000007599592,0.0800000037997961,0.9920000471174716,0.0,0.0,0.0,0.0,0.0,1744621047.3886504,9.0, 2025-04-14 09:57:27.388
41.0,-18.51250478066504,-0.8620469397865236,8.012735655065626,-79.91418225318193,0.0160000007599592,0.0800000037997961,0.9920000471174716,0.0,0.0,0.0,0.0,0.0,1744621047.388698,9.0, 2025-04-14 09:57:27.388
42.0,-29.242277753539383,-8.169811453204602,6.015629078727216,-101.15307410154492,0.0160000007599592,0.0800000037997961,0.9920000471174716,0.0,0.0,0.0,0.0,0.0,1744621047.389577,9.0, 2025-04-14 09:57:27.389
42.0,-30.77937663532793,-11.412304714787751,13.686163887847217,-93.78921108879148,0.0160000007599592,0.0800000037997961,0.9920000471174716,0.0,0.0,0.0,0.0,0.0,1744621047.3897,9.0, 2025-04-14 09:57:27.389
43.0,-21.526864144951105,-2.099953825119883,15.941323561128227,-91.563970615156,0.0160000007599592,0.0800000037997961,0.9920000471174716,0.0,0.0,0.0,0.0,0.0,1744621047.4181564,9.0, 2025-04-14 09:57:27.418
43.0,-17.611188891343772,0.7049711416475475,4.276575599331409,-83.50074631068856,0.0160000007599592,0.0800000037997961,0.9920000471174716,0.0,0.0,0.0,0.0,0.0,1744621047.4182696,9.0, 2025-04-14 09:57:27.418
44.0,-26.239138089120388,-3.251843011472374,-8.345586751122028,-101.69535959511995,0.0160000007599592,0.0800000037997961,0.9920000471174716,0.0,0.0,0.0,0.0,0.0,1744621047.4242735,9.0, 2025-04-14 09:57:27.424
44.0,-26.444832586683333,-5.82863408094272,-5.207810688298196,-95.36744887009264,0.0160000007599592,0.0800000037997961,0.9920000471174716,0.0,0.0,0.0,0.0,0.0,1744621047.4243357,9.0, 2025-04-14 09:57:27.424
45.0,-20.681646754965183,2.092474025208503,2.133612924721092,-88.91612144652754,0.0160000007599592,0.0800000037997961,0.9920000471174716,0.0,0.0,0.0,0.0,0.0,1744621047.4243877,9.0, 2025-04-14 09:57:27.424
45.0,-16.16384760849178,-0.4057791451923549,-8.072574054356664,-93.03375129774211,0.0160000007599592,0.0800000037997961,0.9920000471174716,0.0,0.0,0.0,0.0,0.0,1744621047.4244266,9.0, 2025-04-14 09:57:27.424
46.0,-34.88952668663114,-11.07571371877566,-14.374305479694158,-109.6501268008724,0.0160000007599592,0.0800000037997961,0.9920000471174716,0.0,0.0,0.0,0.0,0.0,1744621047.4481213,9.0, 2025-04-14 09:57:27.448
46.0,-24.238291612826288,-5.8361138808541,-2.986310114618391,-113.70417835284024,0.0160000007599592,0.0800000037997961,0.9920000471174716,0.0,0.0,0.0,0.0,0.0,1744621047.448259,9.0, 2025-04-14 09:57:27.448
47.0,-18.003878386691213,-3.214444011915475,-5.765055781695992,-73.5152134289965,0.0160000007599592,0.0800000037997961,0.9920000471174716,0.0,0.0,0.0,0.0,0.0,1744621047.448531,9.0, 2025-04-14 09:57:27.448
47.0,-20.20293956063688,-1.288395534735173,-16.154497858602554,-96.38844155799598,0.0160000007599592,0.0800000037997961,0.9920000471174716,0.0,0.0,0.0,0.0,0.0,1744621047.4486032,9.0, 2025-04-14 09:57:27.448
48.0,-31.643293525092304,-4.523408996406943,-11.0981531185098,-101.51958429720251,0.0160000007599592,0.0800000037997961,0.9920000471174716,0.0,0.0,0.0,0.0,0.0,1744621047.4493756,9.0, 2025-04-14 09:57:27.449
48.0,-25.061069603078067,-10.439930726308376,0.6301731425337493,-96.43332035746424,0.0160000007599592,0.0800000037997961,0.9920000471174716,0.0,0.0,0.0,0.0,0.0,1744621047.449443,9.0, 2025-04-14 09:57:27.449
49.0,-14.024624833837152,-1.8306810283102093,-1.5950673311017454,-84.98174669314176,0.0160000007599592,0.0800000037997961,0.9920000471174716,0.0,0.0,0.0,0.0,0.0,1744621047.4780564,9.0, 2025-04-14 09:57:27.478
49.0,-9.742439384572208,0.3085417463444173,-2.6459792186506093,-103.98791826795788,0.0160000007599592,0.0800000037997961,0.9920000471174716,0.0,0.0,0.0,0.0,0.0,1744621047.478166,9.0, 2025-04-14 09:57:27.478
50.0,-23.965278916060925,-4.486009996850044,-11.808734110090882,-99.87402831669895,0.0160000007599592,0.0800000037997961,0.9920000471174716,0.0,0.0,0.0,0.0,0.0,1744621047.478538,9.0, 2025-04-14 09:57:27.478
50.0,-20.823762953281403,-4.755282793659717,4.085840701591224,-96.51185825653374,0.0160000007599592,0.0800000037997961,0.9920000471174716,0.0,0.0,0.0,0.0,0.0,1744621047.4785826,9.0, 2025-04-14 09:57:27.478
51.0,-12.981192746199667,0.7199307414703071,9.87146593304351,-90.12784903217108,0.0160000007599592,0.0800000037997961,0.9920000471174716,0.0,0.0,0.0,0.0,0.0,1744621047.4794488,9.0, 2025-04-14 09:57:27.479
51.0,-16.48547900468111,-0.5067564439959824,-12.074267006944863,-94.94858007505536,0.0160000007599592,0.0800000037997961,0.9920000471174716,0.0,0.0,0.0,0.0,0.0,1744621047.4795325,9.0, 2025-04-14 09:57:27.479
52.0,-25.838968793861568,-8.454043849837035,-5.406025385949761,-93.60595599096268,0.0160000007599592,0.0800000037997961,0.9920000471174716,0.0,0.0,0.0,0.0,0.0,1744621047.5080976,9.0, 2025-04-14 09:57:27.508
52.0,-20.382454758509997,-4.168118500616401,1.9428780269809067,-92.18479400780052,0.0160000007599592,0.0800000037997961,0.9920000471174716,0.0,0.0,0.0,0.0,0.0,1744621047.5081837,9.0, 2025-04-14 09:57:27.508
53.0,-15.924494011327624,-3.547295107971877,2.5562216197140515,-84.56287789810449,0.0160000007599592,0.0800000037997961,0.9920000471174716,0.0,0.0,0.0,0.0,0.0,1744621047.5084786,9.0, 2025-04-14 09:57:27.508
53.0,-19.78407076559961,-8.053874554578215,-2.892812615726143,-98.50522493291646,0.0160000007599592,0.0800000037997961,0.9920000471174716,0.0,0.0,0.0,0.0,0.0,1744621047.5085497,9.0, 2025-04-14 09:57:27.508
54.0,-32.1257406193763,-8.184771053027362,-0.8396075400523841,-100.98103870358318,0.0160000007599592,0.0800000037997961,0.9920000471174716,0.0,0.0,0.0,0.0,0.0,1744621047.5094452,9.0, 2025-04-14 09:57:27.509
54.0,-34.09292799606919,-11.49458251381293,5.372366286348552,-92.14739500824362,0.0160000007599592,0.0800000037997961,0.9920000471174716,0.0,0.0,0.0,0.0,0.0,1744621047.5095277,9.0, 2025-04-14 09:57:27.509
55.0,-21.616621743887663,-1.6810850300826132,9.972443231847135,-79.16620226204395,0.0160000007599592,0.0800000037997961,0.9920000471174716,0.0,0.0,0.0,0.0,0.0,1744621047.5380692,9.0, 2025-04-14 09:57:27.538
55.0,-21.601662144064903,-10.825140421744436,-12.64273180020973,-92.10625610873105,0.0160000007599592,0.0800000037997961,0.9920000471174716,0.0,0.0,0.0,0.0,0.0,1744621047.5383148,9.0, 2025-04-14 09:57:27.538
56.0,-37.41395915672183,-8.061354354489595,-11.588080012705175,-102.51065778546035,0.0160000007599592,0.0800000037997961,0.9920000471174716,0.0,0.0,0.0,0.0,0.0,1744621047.5385375,9.0, 2025-04-14 09:57:27.538
56.0,-33.76381679996848,-8.753235846292228,-5.02455559046939,-87.31170436553657,0.0160000007599592,0.0800000037997961,0.9920000471174716,0.0,0.0,0.0,0.0,0.0,1744621047.5386083,9.0, 2025-04-14 09:57:27.538
57.0,-27.39102727547288,-6.269942275714129,-5.593020383734256,-95.94713336322457,0.0160000007599592,0.0800000037997961,0.9920000471174716,0.0,0.0,0.0,0.0,0.0,1744621047.539544,9.0, 2025-04-14 09:57:27.539
57.0,-24.18967291340232,-9.605933036189526,-22.48240858362988,-98.17611373681576,0.0160000007599592,0.0800000037997961,0.9920000471174716,0.0,0.0,0.0,0.0,0.0,1744621047.53966,9.0, 2025-04-14 09:57:27.539
58.0,-33.00087720900774,-19.09031932381913,-26.042793341446668,-107.84001522231848,0.0160000007599592,0.0800000037997961,0.9920000471174716,0.0,0.0,0.0,0.0,0.0,1744621047.5683298,9.0, 2025-04-14 09:57:27.568
58.0,-23.467872221954167,-10.155698329675944,-5.85107348067686,-92.1960137076676,0.0160000007599592,0.0800000037997961,0.9920000471174716,0.0,0.0,0.0,0.0,0.0,1744621047.5684648,9.0, 2025-04-14 09:57:27.568
59.0,-16.45555980503559,-6.441977673675865,0.1402462483383715,-92.2708117067814,0.0160000007599592,0.0800000037997961,0.9920000471174716,0.0,0.0,0.0,0.0,0.0,1744621047.568632,9.0, 2025-04-14 09:57:27.568
59.0,-14.731465925462544,-0.9144055391661824,-4.747802993748337,-80.52752584591508,0.0160000007599592,0.0800000037997961,0.9920000471174716,0.0,0.0,0.0,0.0,0.0,1744621047.5687058,9.0, 2025-04-14 09:57:27.568
60.0,-17.551350492052734,-9.332920339424165,-7.893058856483549,-94.54841077979654,0.0160000007599592,0.0800000037997961,0.9920000471174716,0.0,0.0,0.0,0.0,0.0,1744621047.569558,9.0, 2025-04-14 09:57:27.569
60.0,-17.211019596084952,-3.8502270043827593,10.484809525776654,-83.8186378069222,0.0160000007599592,0.0800000037997961,0.9920000471174716,0.0,0.0,0.0,0.0,0.0,1744621047.5696237,9.0, 2025-04-14 09:57:27.569
61.0,-14.701546725817025,-2.058814925607294,7.904278556350619,-83.43716801144183,0.0160000007599592,0.0800000037997961,0.9920000471174716,0.0,0.0,0.0,0.0,0.0,1744621047.5979788,9.0, 2025-04-14 09:57:27.597
61.0,-8.781285095959902,-0.8321277401410043,-7.216136964503676,-77.63658318016678,0.0160000007599592,0.0800000037997961,0.9920000471174716,0.0,0.0,0.0,0.0,0.0,1744621047.5981,9.0, 2025-04-14 09:57:27.598
62.0,-20.24781836010516,-5.282608687411994,-16.857599050272256,-113.8687339508906,0.0160000007599592,0.0800000037997961,0.9920000471174716,0.0,0.0,0.0,0.0,0.0,1744621047.598447,9.0, 2025-04-14 09:57:27.598
62.0,-23.924140016548336,-9.691950735170394,-6.670111570972949,-72.83081173710525,0.0160000007599592,0.0800000037997961,0.9920000471174716,0.0,0.0,0.0,0.0,0.0,1744621047.598513,9.0, 2025-04-14 09:57:27.598
63.0,-13.011111945845188,0.8583070398308337,-3.951204303186387,-83.61294330935925,0.0160000007599592,0.0800000037997961,0.9920000471174716,0.0,0.0,0.0,0.0,0.0,1744621047.5995057,9.0, 2025-04-14 09:57:27.599
63.0,-14.353736029937863,-6.161485176999122,-21.06124660046771,-90.4494804283604,0.0160000007599592,0.0800000037997961,0.9920000471174716,0.0,0.0,0.0,0.0,0.0,1744621047.5995517,9.0, 2025-04-14 09:57:27.599
64.0,-25.663193495944142,-8.162331653293222,-20.74709500418976,-100.50607140921056,0.0160000007599592,0.0800000037997961,0.9920000471174716,0.0,0.0,0.0,0.0,0.0,1744621047.628168,9.0, 2025-04-14 09:57:27.628
64.0,-28.430719463154677,-4.048441702034324,-6.269942275714129,-97.58520954381676,0.0160000007599592,0.0800000037997961,0.9920000471174716,0.0,0.0,0.0,0.0,0.0,1744621047.6282554,9.0, 2025-04-14 09:57:27.628
65.0,-16.305963806807995,-3.345340510364622,-3.9175452035851777,-88.93856084626168,0.0160000007599592,0.0800000037997961,0.9920000471174716,0.0,0.0,0.0,0.0,0.0,1744621047.6285589,9.0, 2025-04-14 09:57:27.628
65.0,-21.78117734193802,-0.3085417463444173,-12.197683705482632,-82.75276631955057,0.0160000007599592,0.0800000037997961,0.9920000471174716,0.0,0.0,0.0,0.0,0.0,1744621047.6286252,9.0, 2025-04-14 09:57:27.628
66.0,-26.889880681410432,-7.107679865788668,-18.68641012860462,-107.51838382612914,0.0160000007599592,0.0800000037997961,0.9920000471174716,0.0,0.0,0.0,0.0,0.0,1744621047.62956,9.0, 2025-04-14 09:57:27.629
66.0,-23.232258524745703,-8.424124650191516,-10.211796829011291,-88.77400524821132,0.0160000007599592,0.0800000037997961,0.9920000471174716,0.0,0.0,0.0,0.0,0.0,1744621047.629646,9.0, 2025-04-14 09:57:27.629
67.0,-12.977452846243978,1.5614082315005362,-7.739722958300263,-81.34656393621117,0.0160000007599592,0.0800000037997961,0.9920000471174716,0.0,0.0,0.0,0.0,0.0,1744621047.6581557,9.0, 2025-04-14 09:57:27.658
67.0,-16.287264307029545,-7.275975363794714,-17.699076540302485,-91.95666011050344,0.0160000007599592,0.0800000037997961,0.9920000471174716,0.0,0.0,0.0,0.0,0.0,1744621047.6582162,9.0, 2025-04-14 09:57:27.658
68.0,-21.24637164827436,-7.908018456306308,-22.12711808783933,-90.06427073292434,0.0160000007599592,0.0800000037997961,0.9920000471174716,0.0,0.0,0.0,0.0,0.0,1744621047.6585424,9.0, 2025-04-14 09:57:27.658
68.0,-25.39392069913447,-7.728503258433193,-7.354513262864202,-91.13014222029597,0.0160000007599592,0.0800000037997961,0.9920000471174716,0.0,0.0,0.0,0.0,0.0,1744621047.6586032,9.0, 2025-04-14 09:57:27.658
69.0,-20.412373958155516,-7.070280866231769,-3.8876260039396575,-78.96050776448101,0.0160000007599592,0.0800000037997961,0.9920000471174716,0.0,0.0,0.0,0.0,0.0,1744621047.659412,9.0, 2025-04-14 09:57:27.659
69.0,-21.998091539368037,-9.138445541728288,-14.157391282264143,-93.1609078962356,0.0160000007599592,0.0800000037997961,0.9920000471174716,0.0,0.0,0.0,0.0,0.0,1744621047.6595514,9.0, 2025-04-14 09:57:27.659
70.0,-25.203185801394284,-18.600392429623756,-15.90392456157133,-87.45756046380848,0.0160000007599592,0.0800000037997961,0.9920000471174716,0.0,0.0,0.0,0.0,0.0,1744621047.6880891,9.0, 2025-04-14 09:57:27.688
70.0,-22.794690229929984,-12.897044997196645,1.1350596365518868,-90.55419762711972,0.0160000007599592,0.0800000037997961,0.9920000471174716,0.0,0.0,0.0,0.0,0.0,1744621047.688154,9.0, 2025-04-14 09:57:27.688
71.0,-18.011358186602592,-4.897398991975933,14.456583278719336,-67.9951210943982,0.0160000007599592,0.0800000037997961,0.9920000471174716,0.0,0.0,0.0,0.0,0.0,1744621047.6886632,9.0, 2025-04-14 09:57:27.688
71.0,-24.9002539049834,-10.365132727194576,-2.4440246210433543,-98.92035382799804,0.0160000007599592,0.0800000037997961,0.9920000471174716,0.0,0.0,0.0,0.0,0.0,1744621047.6887164,9.0, 2025-04-14 09:57:27.688
72.0,-29.189919154159725,-14.927810673136264,-3.0012697144411504,-97.32715644687414,0.0160000007599592,0.0800000037997961,0.9920000471174716,0.0,0.0,0.0,0.0,0.0,1744621047.689607,9.0, 2025-04-14 09:57:27.689
72.0,-35.04286258481443,-20.515221206936985,3.4724971088580787,-96.32860315870494,0.0160000007599592,0.0800000037997961,0.9920000471174716,0.0,0.0,0.0,0.0,0.0,1744621047.68979,9.0, 2025-04-14 09:57:27.689
73.0,-15.6739207142964,2.5562216197140515,21.97378218965605,-78.12651007436216,0.0160000007599592,0.0800000037997961,0.9920000471174716,0.0,0.0,0.0,0.0,0.0,1744621047.718178,9.0, 2025-04-14 09:57:27.718
73.0,-26.456052286550403,-9.00754904327914,-4.508449396584183,-99.43272012192756,0.0160000007599592,0.0800000037997961,0.9920000471174716,0.0,0.0,0.0,0.0,0.0,1744621047.7183723,9.0, 2025-04-14 09:57:27.718
74.0,-31.957445121370256,-15.806687162723392,-21.89150439063087,-96.45949965715408,0.0160000007599592,0.0800000037997961,0.9920000471174716,0.0,0.0,0.0,0.0,0.0,1744621047.718608,9.0, 2025-04-14 09:57:27.718
74.0,-28.07168906740844,-19.670003816951063,-14.060153883416206,-88.05220455676317,0.0160000007599592,0.0800000037997961,0.9920000471174716,0.0,0.0,0.0,0.0,0.0,1744621047.718711,9.0, 2025-04-14 09:57:27.718
75.0,-21.257591348141432,-4.078360901679844,-7.721023458521813,-71.88087714836001,0.0160000007599592,0.0800000037997961,0.9920000471174716,0.0,0.0,0.0,0.0,0.0,1744621047.7196815,9.0, 2025-04-14 09:57:27.719
75.0,-17.820623288862407,-8.906571744475514,-15.589772965293378,-92.98887249827384,0.0160000007599592,0.0800000037997961,0.9920000471174716,0.0,0.0,0.0,0.0,0.0,1744621047.7197464,9.0, 2025-04-14 09:57:27.719
76.0,-20.647987655363977,-11.374905715230852,-19.670003816951063,-88.96100024599582,0.0160000007599592,0.0800000037997961,0.9920000471174716,0.0,0.0,0.0,0.0,0.0,1744621047.7482274,9.0, 2025-04-14 09:57:27.748
76.0,-20.31513655930757,-9.0973066422157,-13.293474392499776,-89.02083864528686,0.0160000007599592,0.0800000037997961,0.9920000471174716,0.0,0.0,0.0,0.0,0.0,1744621047.7484047,9.0, 2025-04-14 09:57:27.748
77.0,-15.550504015758634,2.5113428202457726,-12.575413601007313,-85.0415850924328,0.0160000007599592,0.0800000037997961,0.9920000471174716,0.0,0.0,0.0,0.0,0.0,1744621047.7485805,9.0, 2025-04-14 09:57:27.748
77.0,-11.70214696135372,1.0415621376596391,-17.586879541631788,-89.71646003704518,0.0160000007599592,0.0800000037997961,0.9920000471174716,0.0,0.0,0.0,0.0,0.0,1744621047.748649,9.0, 2025-04-14 09:57:27.748
78.0,-22.031750638969243,-5.379846086259931,-17.07077334774658,-86.48892637528479,0.0160000007599592,0.0800000037997961,0.9920000471174716,0.0,0.0,0.0,0.0,0.0,1744621047.749951,9.0, 2025-04-14 09:57:27.749
78.0,-24.242031512781978,-8.076313954312354,-10.383832226973029,-95.41980746947227,0.0160000007599592,0.0800000037997961,0.9920000471174716,0.0,0.0,0.0,0.0,0.0,1744621047.750064,9.0, 2025-04-14 09:57:27.750
79.0,-13.770311636850238,0.3422008459456265,-10.178137729410082,-97.30845694709568,0.0160000007599592,0.0800000037997961,0.9920000471174716,0.0,0.0,0.0,0.0,0.0,1744621047.7782145,9.0, 2025-04-14 09:57:27.778
79.0,-15.954413210973144,-1.2210773355327549,-18.37599843228236,-87.90260855853558,0.0160000007599592,0.0800000037997961,0.9920000471174716,0.0,0.0,0.0,0.0,0.0,1744621047.7783184,9.0, 2025-04-14 09:57:27.778
80.0,-28.434459363110363,-8.22964985249564,-16.31905345665291,-101.01843770314008,0.0160000007599592,0.0800000037997961,1.008000047877431,0.0,0.0,0.0,0.0,0.0,1744621047.778592,9.0, 2025-04-14 09:57:27.778
80.0,-28.95056555699557,-12.22386300517246,0.2038245475850999,-88.62814914993942,0.0160000007599592,0.0800000037997961,1.008000047877431,0.0,0.0,0.0,0.0,0.0,1744621047.7786577,9.0, 2025-04-14 09:57:27.778
81.0,-19.65691416710615,-6.314821075182408,-0.8732666396535933,-78.16390907391906,0.0160000007599592,0.0800000037997961,1.008000047877431,0.0,0.0,0.0,0.0,0.0,1744621047.779637,9.0, 2025-04-14 09:57:27.779
81.0,-17.887941488064826,-5.398545586038381,-9.130965741816908,-83.45586751122028,0.0160000007599592,0.0800000037997961,1.008000047877431,0.0,0.0,0.0,0.0,0.0,1744621047.779739,9.0, 2025-04-14 09:57:27.779
82.0,-22.387041134759784,-11.47962291399017,-3.745509805623442,-92.49146580416708,0.0160000007599592,0.0800000037997961,1.008000047877431,0.0,0.0,0.0,0.0,0.0,1744621047.808674,9.0, 2025-04-14 09:57:27.808
82.0,-27.37980757560581,-5.783755281474441,9.314220839645714,-82.53585212212056,0.0160000007599592,0.0800000037997961,1.008000047877431,0.0,0.0,0.0,0.0,0.0,1744621047.808768,9.0, 2025-04-14 09:57:27.808
83.0,-19.555936868302524,-8.921531344298273,12.769888398703188,-91.84446311183274,0.0160000007599592,0.0800000037997961,1.008000047877431,0.0,0.0,0.0,0.0,0.0,1744621047.8089428,9.0, 2025-04-14 09:57:27.808
83.0,-15.7113197138533,-7.874359356705099,8.562500948552042,-87.01251236908138,0.0160000007599592,0.0800000037997961,1.008000047877431,0.0,0.0,0.0,0.0,0.0,1744621047.809046,9.0, 2025-04-14 09:57:27.809
84.0,-30.308149240911007,-10.122039230074732,19.374551720451564,-102.43585978634655,0.0160000007599592,0.0800000037997961,1.008000047877431,0.0,0.0,0.0,0.0,0.0,1744621047.8096533,9.0, 2025-04-14 09:57:27.809
84.0,-37.54485565517098,-12.743709099013358,18.32737973285839,-88.99839924555272,0.0160000007599592,0.0800000037997961,1.008000047877431,0.0,0.0,0.0,0.0,0.0,1744621047.8097634,9.0, 2025-04-14 09:57:27.809
85.0,-24.9376529045403,-10.21553672896698,13.1363985943608,-89.90719493478537,0.0160000007599592,0.0800000037997961,1.008000047877431,0.0,0.0,0.0,0.0,0.0,1744621047.8380888,9.0, 2025-04-14 09:57:27.838
85.0,-17.233458995819092,-1.2397768353112042,2.4440246210433543,-93.98742578644304,0.0160000007599592,0.0800000037997961,1.008000047877431,0.0,0.0,0.0,0.0,0.0,1744621047.8381653,9.0, 2025-04-14 09:57:27.838
86.0,-34.53797609079629,-11.84239320969209,-2.073774525430053,-87.99984595738351,0.0160000007599592,0.0800000037997961,1.008000047877431,0.0,0.0,0.0,0.0,0.0,1744621047.8386445,9.0, 2025-04-14 09:57:27.838
86.0,-25.74547129496932,-14.228449381422251,-3.091027313377708,-85.82322418317199,0.0160000007599592,0.0800000037997961,1.008000047877431,0.0,0.0,0.0,0.0,0.0,1744621047.8386908,9.0, 2025-04-14 09:57:27.838
87.0,-14.559430527500808,-11.135552118066698,-6.505555972922593,-94.70174667797984,0.0160000007599592,0.0800000037997961,1.008000047877431,0.0,0.0,0.0,0.0,0.0,1744621047.839353,9.0, 2025-04-14 09:57:27.839
87.0,-17.958999587222934,-5.593020383734256,-15.256921869236976,-87.67447466123849,0.0160000007599592,0.0800000037997961,1.008000047877431,0.0,0.0,0.0,0.0,0.0,1744621047.8393962,9.0, 2025-04-14 09:57:27.839
88.0,-24.50008460972458,-6.109126577619463,-15.720669463742524,-93.29928419459613,0.0160000007599592,0.0800000037997961,1.008000047877431,0.0,0.0,0.0,0.0,0.0,1744621047.8686712,9.0, 2025-04-14 09:57:27.868
88.0,-28.681292760185897,-10.974736419972032,4.740323193836957,-84.94434769358486,0.0160000007599592,0.0800000037997961,1.008000047877431,0.0,0.0,0.0,0.0,0.0,1744621047.8687928,9.0, 2025-04-14 09:57:27.868
89.0,-12.88021544739604,-8.495182749349624,5.514482484664768,-76.80632539000362,0.0160000007599592,0.0800000037997961,1.008000047877431,0.0,0.0,0.0,0.0,0.0,1744621047.8688588,9.0, 2025-04-14 09:57:27.868
89.0,-12.539884551428258,-2.702077717985958,-6.004409378860146,-88.82636384759098,0.0160000007599592,0.0800000037997961,1.008000047877431,0.0,0.0,0.0,0.0,0.0,1744621047.868926,9.0, 2025-04-14 09:57:27.868
90.0,-19.552196968346838,-9.45633703796193,-5.189111188519746,-96.50811835657804,0.0160000007599592,0.0800000037997961,0.9920000471174716,0.0,0.0,0.0,0.0,0.0,1744621047.8695698,9.0, 2025-04-14 09:57:27.869
90.0,-25.618314696475863,-9.572273936588315,7.02540206676349,-88.63936884980649,0.0160000007599592,0.0800000037997961,0.9920000471174716,0.0,0.0,0.0,0.0,0.0,1744621047.8696327,9.0, 2025-04-14 09:57:27.869
91.0,-12.89891494717449,-13.293474392499776,-0.5591150433756411,-90.42704102862626,0.0160000007599592,0.0800000037997961,0.9920000471174716,0.0,0.0,0.0,0.0,0.0,1744621047.8981864,9.0, 2025-04-14 09:57:27.898
91.0,-6.208233926445246,-7.137599065434188,-7.941677555907518,-91.50039231590928,0.0160000007599592,0.0800000037997961,0.9920000471174716,0.0,0.0,0.0,0.0,0.0,1744621047.8982756,9.0, 2025-04-14 09:57:27.898
92.0,-15.154074620455503,-12.508095401804894,-1.40807233331725,-86.71332037262619,0.0160000007599592,0.0800000037997961,0.9920000471174716,0.0,0.0,0.0,0.0,0.0,1744621047.8985417,9.0, 2025-04-14 09:57:27.898
92.0,-18.340469382703304,-5.7762754815630615,10.387572126928715,-85.05654469225556,0.0160000007599592,0.0800000037997961,0.9920000471174716,0.0,0.0,0.0,0.0,0.0,1744621047.8986285,9.0, 2025-04-14 09:57:27.898
93.0,-11.556290863081813,-2.728257017675787,11.217829917091876,-105.95884554460643,0.0160000007599592,0.0800000037997961,0.9920000471174716,0.0,0.0,0.0,0.0,0.0,1744621047.899505,9.0, 2025-04-14 09:57:27.899
93.0,-12.192073855549095,-4.104540201369673,-7.657445159275085,-103.77100407052784,0.0160000007599592,0.0800000037997961,0.9920000471174716,0.0,0.0,0.0,0.0,0.0,1744621047.89956,9.0, 2025-04-14 09:57:27.899
94.0,-22.611435132101175,-0.6413928424008191,-0.1327664484269917,-105.36794135160744,0.0160000007599592,0.0800000037997961,0.9920000471174716,0.0,0.0,0.0,0.0,0.0,1744621047.928398,9.0, 2025-04-14 09:57:27.928
94.0,-23.991458215750757,-4.21673720004037,14.800654074642807,-89.45466704014689,0.0160000007599592,0.0800000037997961,0.9920000471174716,0.0,0.0,0.0,0.0,0.0,1744621047.9284987,9.0, 2025-04-14 09:57:27.928
95.0,-21.2314120484516,-5.667818382848054,12.074267006944863,-90.84216992370784,0.0160000007599592,0.0800000037997961,0.9920000471174716,0.0,0.0,0.0,0.0,0.0,1744621047.9287508,9.0, 2025-04-14 09:57:27.928
95.0,-25.565956097096205,-9.964963431935756,1.0640015373937786,-104.87801445741206,0.0160000007599592,0.0800000037997961,0.9920000471174716,0.0,0.0,0.0,0.0,0.0,1744621047.9288132,9.0, 2025-04-14 09:57:27.928
96.0,-28.22128506563604,-14.127472082618624,-6.449457473587245,-98.0452172383666,0.0160000007599592,0.0800000037997961,0.9920000471174716,0.0,0.0,0.0,0.0,0.0,1744621047.9297583,9.0, 2025-04-14 09:57:27.929
96.0,-24.443986110389236,-5.690257782582194,1.288395534735173,-94.18938038405032,0.0160000007599592,0.0800000037997961,0.9920000471174716,0.0,0.0,0.0,0.0,0.0,1744621047.9299042,9.0, 2025-04-14 09:57:27.929
97.0,-11.002785669639708,0.1439861482940614,-19.16137742297724,-79.97028075251728,0.0160000007599592,0.0800000037997961,0.9920000471174716,0.0,0.0,0.0,0.0,0.0,1744621047.9586303,9.0, 2025-04-14 09:57:27.958
97.0,-21.631581343710423,0.9630242385901512,-38.27226619655266,-68.24943429138511,0.0160000007599592,0.0800000037997961,0.9920000471174716,0.0,0.0,0.0,0.0,0.0,1744621047.9587247,9.0, 2025-04-14 09:57:27.958
98.0,-30.057575943879783,-6.269942275714129,-44.19626772636548,-95.1954134721309,0.0160000007599592,0.0800000037997961,0.9920000471174716,0.0,0.0,0.0,0.0,0.0,1744621047.9592369,9.0, 2025-04-14 09:57:27.959
98.0,-28.12778756674379,-4.590727195609361,-31.719961474183947,-85.4118351880461,0.0160000007599592,0.0800000037997961,0.9920000471174716,0.0,0.0,0.0,0.0,0.0,1744621047.959294,9.0, 2025-04-14 09:57:27.959
99.0,-16.197506708092988,4.673004994634539,-18.34981913259253,-77.25511338468641,0.0160000007599592,0.0800000037997961,0.9920000471174716,0.0,0.0,0.0,0.0,0.0,1744621047.9595804,9.0, 2025-04-14 09:57:27.959
99.0,-17.36809539422393,-1.082701037172228,-22.45248938398436,-93.69945348985492,0.0160000007599592,0.0800000037997961,0.9920000471174716,0.0,0.0,0.0,0.0,0.0,1744621047.959642,9.0, 2025-04-14 09:57:27.959
100.0,-33.80869559943676,-2.8329742164351046,-9.669511335436257,-90.28118493035436,0.0160000007599592,0.0800000037997961,0.9920000471174716,0.0,0.0,0.0,0.0,0.0,1744621047.988701,9.0, 2025-04-14 09:57:27.988
100.0,-26.11572139058262,-0.1365063483826816,1.7783224289305508,-80.17971515003592,0.0160000007599592,0.0800000037997961,0.9920000471174716,0.0,0.0,0.0,0.0,0.0,1744621047.9888115,9.0, 2025-04-14 09:57:27.988
0.0,-14.69593687588349,4.4878799468278885,-7.822000757325441,-80.41906874720007,0.0160000007599592,0.0800000037997961,0.9920000471174716,0.0,0.0,0.0,0.0,0.0,1744621047.98887,9.0, 2025-04-14 09:57:27.988
1.0,-16.416290855500847,0.3665101956576109,-15.12228547083214,-88.69172744918615,0.0160000007599592,0.0800000037997961,0.9920000471174716,0.0,0.0,0.0,0.0,0.0,1744621047.989298,9.0, 2025-04-14 09:57:27.989
1.0,-27.91274331929162,-11.69466716144234,-6.269942275714129,-96.88958815205842,0.0160000007599592,0.0800000037997961,0.9920000471174716,0.0,0.0,0.0,0.0,0.0,1744621047.9893737,9.0, 2025-04-14 09:57:27.989
2.0,-22.57964598247781,-3.908195453695953,10.593266624491662,-87.77171206008643,0.0160000007599592,0.0800000037997961,0.9920000471174716,0.0,0.0,0.0,0.0,0.0,1744621047.9902694,9.0, 2025-04-14 09:57:27.990
2.0,-17.93843013746664,1.3127048844471574,15.1372450706549,-81.68315493222326,0.0160000007599592,0.0800000037997961,0.9920000471174716,0.0,0.0,0.0,0.0,0.0,1744621047.9903667,9.0, 2025-04-14 09:57:27.990
3.0,-13.394451691303402,-9.058037692680957,1.703524429816753,-97.58146964386106,0.0160000007599592,0.0800000037997961,0.9920000471174716,0.0,0.0,0.0,0.0,0.0,1744621048.0184052,9.0, 2025-04-14 09:57:28.018
3.0,-28.608364711049944,-10.42684107646346,4.0447018020786345,-94.43621378112584,0.0160000007599592,0.0800000037997961,0.9920000471174716,0.0,0.0,0.0,0.0,0.0,1744621048.018467,9.0, 2025-04-14 09:57:28.018
4.0,-33.4777144533582,-4.510319346562028,19.51666791876778,-88.3738359529525,0.0160000007599592,0.0800000037997961,0.9920000471174716,0.0,0.0,0.0,0.0,0.0,1744621048.0187092,9.0, 2025-04-14 09:57:28.018
4.0,-16.105879159178585,-6.705640620552003,14.007795284036549,-96.98682555090636,0.0160000007599592,0.0800000037997961,0.9920000471174716,0.0,0.0,0.0,0.0,0.0,1744621048.0187497,9.0, 2025-04-14 09:57:28.018
5.0,-16.434990355279297,-9.61902268603444,0.2561831469647586,-87.82781055942178,0.0160000007599592,0.0800000037997961,0.9920000471174716,0.0,0.0,0.0,0.0,0.0,1744621048.0479815,9.0, 2025-04-14 09:57:28.047
5.0,-27.1797229279764,-12.177114255726336,-4.841300492640585,-100.91746040433644,0.0160000007599592,0.0800000037997961,0.9920000471174716,0.0,0.0,0.0,0.0,0.0,1744621048.048048,9.0, 2025-04-14 09:57:28.048
6.0,-25.10033855261281,-11.64604846201837,4.164378600660712,-88.05968435667455,0.0160000007599592,0.0800000037997961,0.9920000471174716,0.0,0.0,0.0,0.0,0.0,1744621048.048634,9.0, 2025-04-14 09:57:28.048
6.0,-18.488195430953056,-5.041385140269995,2.900292415637523,-83.23895331379026,0.0160000007599592,0.0800000037997961,0.9920000471174716,0.0,0.0,0.0,0.0,0.0,1744621048.0486896,9.0, 2025-04-14 09:57:28.048
7.0,-19.849519014824185,-15.29993071872741,-18.024447836447507,-82.1506424266845,0.0160000007599592,0.0800000037997961,0.9920000471174716,0.0,0.0,0.0,0.0,0.0,1744621048.0492053,9.0, 2025-04-14 09:57:28.049
7.0,-21.03506730077788,-19.032350874505937,-13.405671391170472,-100.85014220513403,0.0160000007599592,0.0800000037997961,0.9920000471174716,0.0,0.0,0.0,0.0,0.0,1744621048.049248,9.0, 2025-04-14 09:57:28.049
8.0,-22.164517087396234,-10.48293957579881,3.053628313820809,-91.27599831856789,0.0160000007599592,0.0800000037997961,0.9920000471174716,0.0,0.0,0.0,0.0,0.0,1744621048.0500135,9.0, 2025-04-14 09:57:28.050
8.0,-12.377198903355747,-12.693220449611545,0.5740746431984007,-84.03181210439652,0.0160000007599592,0.0800000037997961,0.9920000471174716,0.0,0.0,0.0,0.0,0.0,1744621048.050066,9.0, 2025-04-14 09:57:28.050
9.0,-8.936490944121033,-10.625055774115026,-11.382385515142232,-78.04049237538129,0.0160000007599592,0.0800000037997961,0.9920000471174716,0.0,0.0,0.0,0.0,0.0,1744621048.07819,9.0, 2025-04-14 09:57:28.078
9.0,-19.602685617748648,-19.07348977401853,-17.676637140568346,-100.82022300548851,0.0160000007599592,0.0800000037997961,0.9920000471174716,0.0,0.0,0.0,0.0,0.0,1744621048.0783093,9.0, 2025-04-14 09:57:28.078
10.0,-19.05292032426223,-6.986133117228746,-0.2561831469647586,-93.31050389446318,0.0160000007599592,0.0800000037997961,0.9920000471174716,0.0,0.0,0.0,0.0,0.0,1744621048.0788617,9.0, 2025-04-14 09:57:28.078
10.0,-12.164024605881425,-0.8639168897643685,-1.8419007281772792,-84.66385519690812,0.0160000007599592,0.0800000037997961,0.9920000471174716,0.0,0.0,0.0,0.0,0.0,1744621048.0789351,9.0, 2025-04-14 09:57:28.078
11.0,-10.548387825023385,-3.537945358082652,-1.5202693319879472,-91.27225841861218,0.0160000007599592,0.0800000037997961,0.9920000471174716,0.0,0.0,0.0,0.0,0.0,1744621048.1083012,9.0, 2025-04-14 09:57:28.108
11.0,-27.96136201871559,-6.357829924672842,4.4486109972931445,-95.72647926583886,0.0160000007599592,0.0800000037997961,0.9920000471174716,0.0,0.0,0.0,0.0,0.0,1744621048.108379,9.0, 2025-04-14 09:57:28.108
12.0,-32.32208536705002,-18.09363598562777,14.6547979763709,-104.52272396162152,0.0160000007599592,0.0800000037997961,0.9920000471174716,0.0,0.0,0.0,0.0,0.0,1744621048.1086688,9.0, 2025-04-14 09:57:28.108
12.0,-15.12228547083214,-9.525525187142192,4.830080792773515,-81.98234692867845,0.0160000007599592,0.0800000037997961,0.9920000471174716,0.0,0.0,0.0,0.0,0.0,1744621048.108742,9.0, 2025-04-14 09:57:28.108
13.0,-11.808734110090882,-1.5557983815670011,-11.767595210578293,-94.53719107992949,0.0160000007599592,0.0800000037997961,0.9920000471174716,0.0,0.0,0.0,0.0,0.0,1744621048.1092744,9.0, 2025-04-14 09:57:28.109
13.0,-26.33824543794617,-13.007372045889497,-16.199376658070832,-97.86944194044918,0.0160000007599592,0.0800000037997961,0.9920000471174716,0.0,0.0,0.0,0.0,0.0,1744621048.1093943,9.0, 2025-04-14 09:57:28.109
14.0,-22.73672178061679,-19.32406307104975,-15.593512865249068,-71.72380135022104,0.0160000007599592,0.0800000037997961,0.9920000471174716,0.0,0.0,0.0,0.0,0.0,1744621048.1107635,9.0, 2025-04-14 09:57:28.110
14.0,-13.820800286252052,-8.362416300922632,-4.773982293438166,-69.37514417804778,0.0160000007599592,0.0800000037997961,0.9920000471174716,0.0,0.0,0.0,0.0,0.0,1744621048.1108496,9.0, 2025-04-14 09:57:28.110
15.0,-15.08114657131955,-14.536991127766669,-19.13145822333172,-84.90320879407227,0.0160000007599592,0.0800000037997961,0.9920000471174716,0.0,0.0,0.0,0.0,0.0,1744621048.138096,9.0, 2025-04-14 09:57:28.138
15.0,-20.537660606671125,-15.640261614695191,-11.722716411110014,-93.83782978821546,0.0160000007599592,0.0800000037997961,0.9920000471174716,0.0,0.0,0.0,0.0,0.0,1744621048.1381595,9.0, 2025-04-14 09:57:28.138
16.0,-27.419076525140557,-11.23465946689248,13.300954192411156,-75.70679480303079,0.0160000007599592,0.0800000037997961,0.9920000471174716,0.0,0.0,0.0,0.0,0.0,1744621048.138805,9.0, 2025-04-14 09:57:28.138
16.0,-14.250888781156393,-12.723139649257064,19.9916352131404,-85.38939578831196,0.0160000007599592,0.0800000037997961,0.9920000471174716,0.0,0.0,0.0,0.0,0.0,1744621048.138893,9.0, 2025-04-14 09:57:28.138
17.0,-14.920330873224884,-13.23550594318658,10.881238921079785,-93.77051158901304,0.0160000007599592,0.0800000037997961,0.9920000471174716,0.0,0.0,0.0,0.0,0.0,1744621048.1684873,9.0, 2025-04-14 09:57:28.168
17.0,-22.66566368145868,-17.29703729506582,2.1448326245881617,-102.09178899042308,0.0160000007599592,0.0800000037997961,0.9920000471174716,0.0,0.0,0.0,0.0,0.0,1744621048.1686285,9.0, 2025-04-14 09:57:28.168
18.0,-20.470342407468703,-10.157568279653788,23.776413968298584,-99.26068472396582,0.0160000007599592,0.0800000037997961,0.9920000471174716,0.0,0.0,0.0,0.0,0.0,1744621048.1687376,9.0, 2025-04-14 09:57:28.168
18.0,-14.29576758062467,-4.229826849885285,26.74963443307206,-79.04652546346188,0.0160000007599592,0.0800000037997961,0.9920000471174716,0.0,0.0,0.0,0.0,0.0,1744621048.1688285,9.0, 2025-04-14 09:57:28.168
19.0,-17.07451324770227,-7.547118110582232,12.422077702824026,-108.57303561363368,0.0160000007599592,0.0800000037997961,0.9920000471174716,0.0,0.0,0.0,0.0,0.0,1744621048.1694648,9.0, 2025-04-14 09:57:28.169
19.0,-25.650103846099228,-24.51130430959165,4.411211997736245,-105.22582515329124,0.0160000007599592,0.0800000037997961,0.9920000471174716,0.0,0.0,0.0,0.0,0.0,1744621048.1695344,9.0, 2025-04-14 09:57:28.169
20.0,-24.176583263557404,-16.421900705434382,18.69762982847169,-101.88235459290443,0.0160000007599592,0.0800000037997961,0.9920000471174716,0.0,0.0,0.0,0.0,0.0,1744621048.1702085,9.0, 2025-04-14 09:57:28.170
20.0,-15.836606362368912,-12.528664851561189,13.162577894050628,-100.58834920823574,0.0160000007599592,0.0800000037997961,0.9920000471174716,0.0,0.0,0.0,0.0,0.0,1744621048.1703029,9.0, 2025-04-14 09:57:28.170
21.0,-10.118299330119044,-9.26747209019959,7.945417455863208,-88.02976515702903,0.0160000007599592,0.0800000037997961,0.9920000471174716,0.0,0.0,0.0,0.0,0.0,1744621048.198032,9.0, 2025-04-14 09:57:28.198
21.0,-21.9176836903207,-14.581869927234948,10.466110025998203,-117.204724711366,0.0160000007599592,0.0800000037997961,0.9920000471174716,0.0,0.0,0.0,0.0,0.0,1744621048.1980882,9.0, 2025-04-14 09:57:28.198
22.0,-24.210242363158613,-26.99833778012544,13.88811848545447,-104.26467086467892,0.0160000007599592,0.0800000037997961,0.9920000471174716,0.0,0.0,0.0,0.0,0.0,1744621048.1987116,9.0, 2025-04-14 09:57:28.198
22.0,-21.05002690060064,-16.795890701003373,15.960023060906678,-91.28721801843494,0.0160000007599592,0.0800000037997961,0.9920000471174716,0.0,0.0,0.0,0.0,0.0,1744621048.1987932,9.0, 2025-04-14 09:57:28.198
23.0,-14.819353574421257,-18.991211974993348,-1.4230319331400096,-95.66664086654782,0.0160000007599592,0.0800000037997961,0.9920000471174716,0.0,0.0,0.0,0.0,0.0,1744621048.2280433,9.0, 2025-04-14 09:57:28.228
23.0,-26.6972758336924,-21.76247784215957,-19.1389380232431,-90.4120814288035,0.0160000007599592,0.0800000037997961,0.9920000471174716,0.0,0.0,0.0,0.0,0.0,1744621048.228146,9.0, 2025-04-14 09:57:28.228
24.0,-22.542246982920915,-21.66898034326732,-4.014782602433115,-90.84590982366352,0.0160000007599592,0.0800000037997961,0.9920000471174716,0.0,0.0,0.0,0.0,0.0,1744621048.2284212,9.0, 2025-04-14 09:57:28.228
24.0,-16.053520559798926,-15.516844916157424,4.018522502388805,-80.10865705087781,0.0160000007599592,0.0800000037997961,0.9920000471174716,0.0,0.0,0.0,0.0,0.0,1744621048.2285724,9.0, 2025-04-14 09:57:28.228
25.0,-17.291427445132285,-15.053097321651876,-10.002362431492656,-89.3387301415205,0.0160000007599592,0.0800000037997961,0.9920000471174716,0.0,0.0,0.0,0.0,0.0,1744621048.2292652,9.0, 2025-04-14 09:57:28.229
25.0,-19.670003816951063,-12.255652154795824,-1.6810850300826132,-97.30471704714,0.0160000007599592,0.0800000037997961,0.9920000471174716,0.0,0.0,0.0,0.0,0.0,1744621048.2293177,9.0, 2025-04-14 09:57:28.229
26.0,-33.21592145645991,-15.67766061425209,33.65722965123132,-96.87088865227996,0.0160000007599592,0.0800000037997961,0.9920000471174716,0.0,0.0,0.0,0.0,0.0,1744621048.2300184,9.0, 2025-04-14 09:57:28.230
26.0,-24.52065405948088,-19.118368573486805,51.33199684182182,-88.76278554834425,0.0160000007599592,0.0800000037997961,0.9920000471174716,0.0,0.0,0.0,0.0,0.0,1744621048.230074,9.0, 2025-04-14 09:57:28.230
27.0,-30.186602492351085,-23.54641012102365,67.46592525066808,-111.17226608283818,0.0160000007599592,0.0800000037997961,0.9920000471174716,0.0,0.0,0.0,0.0,0.0,1744621048.2585557,9.0, 2025-04-14 09:57:28.258
27.0,-33.391696754377335,-24.006417815573517,30.882223884109408,-104.30580976419152,0.0160000007599592,0.0800000037997961,0.9920000471174716,0.0,0.0,0.0,0.0,0.0,1744621048.2586288,9.0, 2025-04-14 09:57:28.258
28.0,-30.665309686679397,-14.712766425684094,21.405317396391183,-97.4543130453676,0.0160000007599592,0.0800000037997961,0.9920000471174716,0.0,0.0,0.0,0.0,0.0,1744621048.2587817,9.0, 2025-04-14 09:57:28.258
28.0,-19.303493621293452,-5.142362439073622,3.502416308503598,-90.58411682676524,0.0160000007599592,0.0800000037997961,0.9920000471174716,0.0,0.0,0.0,0.0,0.0,1744621048.2588866,9.0, 2025-04-14 09:57:28.258
29.0,-18.33859943272546,-11.414174664765596,-12.983062696177512,-99.50377822108568,0.0160000007599592,0.0800000037997961,0.9920000471174716,0.0,0.0,0.0,0.0,0.0,1744621048.2886248,9.0, 2025-04-14 09:57:28.288
29.0,-26.850611731875688,-26.254097688943148,-12.754928798880428,-101.3064099997282,0.0160000007599592,0.0800000037997961,0.9920000471174716,0.0,0.0,0.0,0.0,0.0,1744621048.2888076,9.0, 2025-04-14 09:57:28.288
30.0,-27.23956132726744,-20.000984963029623,-16.573366653639823,-113.34140805713832,0.0160000007599592,0.0800000037997961,0.9920000471174716,0.0,0.0,0.0,0.0,0.0,1744621048.2889516,9.0, 2025-04-14 09:57:28.288
30.0,-10.959776820149273,-11.597429762594402,-6.808487869333476,-87.4500806638971,0.0160000007599592,0.0800000037997961,0.9920000471174716,0.0,0.0,0.0,0.0,0.0,1744621048.289049,9.0, 2025-04-14 09:57:28.289
31.0,-18.82852632692084,-9.117876091971992,-22.8077798797749,-95.4534665690735,0.0160000007599592,0.0800000037997961,0.9920000471174716,0.0,0.0,0.0,0.0,0.0,1744621048.2893288,9.0, 2025-04-14 09:57:28.289
31.0,-19.288534021470696,-18.235752183943987,-25.672543245833367,-101.10445540212096,0.0160000007599592,0.0800000037997961,0.9920000471174716,0.0,0.0,0.0,0.0,0.0,1744621048.2894015,9.0, 2025-04-14 09:57:28.289
32.0,-11.88353210920468,-5.377976136282086,-6.370919574517757,-83.38854931201786,0.0160000007599592,0.0800000037997961,0.9920000471174716,0.0,0.0,0.0,0.0,0.0,1744621048.2902532,9.0, 2025-04-14 09:57:28.290
32.0,-8.308187751565129,4.01291265245527,-9.0225086431019,-66.33834541402757,0.0160000007599592,0.0800000037997961,0.9920000471174716,0.0,0.0,0.0,0.0,0.0,1744621048.29031,9.0, 2025-04-14 09:57:28.290
33.0,-8.839253545273095,-10.47919967584312,-24.55805305903777,-80.81923804245889,0.0160000007599592,0.0800000037997961,0.9920000471174716,0.0,0.0,0.0,0.0,0.0,1744621048.3182826,9.0, 2025-04-14 09:57:28.318
33.0,-17.86363213835284,-10.41936127655208,-32.40810306603089,-98.36684863455594,0.0160000007599592,0.0800000037997961,0.9920000471174716,0.0,0.0,0.0,0.0,0.0,1744621048.3184164,9.0, 2025-04-14 09:57:28.318
34.0,-14.119992282707244,-9.506825687363744,-21.412797196302563,-85.72598678432405,0.0160000007599592,0.0800000037997961,0.9920000471174716,0.0,0.0,0.0,0.0,0.0,1744621048.3188472,9.0, 2025-04-14 09:57:28.318
34.0,-6.550434772390872,-3.2798922611400485,-18.592912629712373,-78.25366667285562,0.0160000007599592,0.0800000037997961,0.9920000471174716,0.0,0.0,0.0,0.0,0.0,1744621048.3189316,9.0, 2025-04-14 09:57:28.318
35.0,-11.573120412882416,-5.463993835262954,-36.04702572291717,-87.7829317599535,0.0160000007599592,0.0800000037997961,0.9920000471174716,0.0,0.0,0.0,0.0,0.0,1744621048.3486438,9.0, 2025-04-14 09:57:28.348
35.0,-14.400484779383987,-9.888295482844114,-30.37359749013558,-92.7495189011097,0.0160000007599592,0.0800000037997961,0.9920000471174716,0.0,0.0,0.0,0.0,0.0,1744621048.3487315,9.0, 2025-04-14 09:57:28.348
36.0,-13.09525969484821,-3.0816775634884834,-19.307233521249145,-77.15787598583847,0.0160000007599592,0.0800000037997961,0.9920000471174716,0.0,0.0,0.0,0.0,0.0,1744621048.348844,9.0, 2025-04-14 09:57:28.348
36.0,-10.136998829897491,-0.5909041929990053,-24.909603654872623,-68.0325200939551,0.0160000007599592,0.0800000037997961,0.9920000471174716,0.0,0.0,0.0,0.0,0.0,1744621048.349022,9.0, 2025-04-14 09:57:28.349
37.0,-9.134705641772598,-0.523585993796587,-37.22509420895949,-82.29275862500072,0.0160000007599592,0.0800000037997961,0.9920000471174716,0.0,0.0,0.0,0.0,0.0,1744621048.3493235,9.0, 2025-04-14 09:57:28.349
37.0,-12.373459003400058,-12.382808753289282,-49.551804462913424,-103.49051157385112,0.0160000007599592,0.0800000037997961,0.9920000471174716,0.0,0.0,0.0,0.0,0.0,1744621048.349397,9.0, 2025-04-14 09:57:28.349
38.0,-15.690750264097003,-6.069857628084719,-55.85727578820661,-77.4458482824266,0.0160000007599592,0.0800000037997961,0.9920000471174716,0.0,0.0,0.0,0.0,0.0,1744621048.350141,9.0, 2025-04-14 09:57:28.350
38.0,1.516529432032257,4.977806841023266,-55.24393219547346,-75.17572900932282,0.0160000007599592,0.0800000037997961,0.9920000471174716,0.0,0.0,0.0,0.0,0.0,1744621048.350236,9.0, 2025-04-14 09:57:28.350
39.0,-2.7619161172769964,1.933528277091682,-56.86330887628719,-90.8907886231318,0.0160000007599592,0.0800000037997961,0.9920000471174716,0.0,0.0,0.0,0.0,0.0,1744621048.378954,9.0, 2025-04-14 09:57:28.378
39.0,-7.1039399658329785,-4.117629851214588,-51.02906494541094,-79.442954858765,0.0160000007599592,0.0800000037997961,0.9920000471174716,0.0,0.0,0.0,0.0,0.0,1744621048.37908,9.0, 2025-04-14 09:57:28.379
40.0,-19.42317041987553,-4.802031543105841,-28.80283950874582,-84.06921110395342,0.0160000007599592,0.0800000037997961,1.008000047877431,0.0,0.0,0.0,0.0,0.0,1744621048.3792872,9.0, 2025-04-14 09:57:28.379
40.0,-11.588080012705175,-6.743039620108903,-39.1100037866272,-79.87304335366935,0.0160000007599592,0.0800000037997961,1.008000047877431,0.0,0.0,0.0,0.0,0.0,1744621048.3794358,9.0, 2025-04-14 09:57:28.379
41.0,-7.238576364237815,-8.631689097732306,-42.8536436422728,-86.2981914775446,0.0160000007599592,0.0800000037997961,1.008000047877431,0.0,0.0,0.0,0.0,0.0,1744621048.4088564,9.0, 2025-04-14 09:57:28.408
41.0,-25.17513655172661,-5.018945740535855,-37.427048806566745,-94.25669858325271,0.0160000007599592,0.0800000037997961,1.008000047877431,0.0,0.0,0.0,0.0,0.0,1744621048.4090295,9.0, 2025-04-14 09:57:28.409
42.0,-9.662031535524877,-1.6642554802820086,-23.024694077204916,-69.7753134733066,0.0160000007599592,0.0800000037997961,1.008000047877431,0.0,0.0,0.0,0.0,0.0,1744621048.4095175,9.0, 2025-04-14 09:57:28.409
42.0,-8.854213145095855,2.1429626746103168,-39.67472867993638,-81.1857482381165,0.0160000007599592,0.0800000037997961,1.008000047877431,0.0,0.0,0.0,0.0,0.0,1744621048.4096444,9.0, 2025-04-14 09:57:28.409
43.0,-2.257029623258859,-0.2580530969426036,-56.23500568373129,-81.58591753337532,0.0160000007599592,0.0800000037997961,1.008000047877431,0.0,0.0,0.0,0.0,0.0,1744621048.4098065,9.0, 2025-04-14 09:57:28.409
43.0,-21.51751439506188,-7.965986905619502,-47.2629856900312,-91.81828381214292,0.0160000007599592,0.0800000037997961,1.008000047877431,0.0,0.0,0.0,0.0,0.0,1744621048.4099236,9.0, 2025-04-14 09:57:28.409
44.0,-9.87146593304351,0.4674874944612384,-28.241854515392333,-68.72814148571342,0.0160000007599592,0.0800000037997961,1.008000047877431,0.0,0.0,0.0,0.0,0.0,1744621048.4102492,9.0, 2025-04-14 09:57:28.410
44.0,-10.701723723206667,3.736160055734217,-21.0649865004234,-71.94445544760674,0.0160000007599592,0.0800000037997961,1.008000047877431,0.0,0.0,0.0,0.0,0.0,1744621048.4103258,9.0, 2025-04-14 09:57:28.410
45.0,-12.930704096797854,-5.946440929546952,-27.864124619867653,-86.42534807603806,0.0160000007599592,0.0800000037997961,1.008000047877431,0.0,0.0,0.0,0.0,0.0,1744621048.4390695,9.0, 2025-04-14 09:57:28.439
45.0,-20.39554440835491,-12.46508655231446,-15.268141569104046,-95.82745656464247,0.0160000007599592,0.0800000037997961,1.008000047877431,0.0,0.0,0.0,0.0,0.0,1744621048.4391737,9.0, 2025-04-14 09:57:28.439
46.0,-25.49302804796025,-12.278091554529963,-2.1897114240564406,-88.47481325175613,0.0160000007599592,0.0800000037997961,1.008000047877431,0.0,0.0,0.0,0.0,0.0,1744621048.4392648,9.0, 2025-04-14 09:57:28.439
46.0,-10.555867624934764,-2.457114270888269,-16.786540951114148,-76.2939590960741,0.0160000007599592,0.0800000037997961,1.008000047877431,0.0,0.0,0.0,0.0,0.0,1744621048.43935,9.0, 2025-04-14 09:57:28.439
47.0,-19.834559415001426,-8.972019993700087,-41.69427465600893,-91.71730651333928,0.0160000007599592,0.0800000037997961,1.008000047877431,0.0,0.0,0.0,0.0,0.0,1744621048.4684808,9.0, 2025-04-14 09:57:28.468
47.0,-8.2446094523184,-4.600076945498586,-48.657968373503536,-88.77774514816701,0.0160000007599592,0.0800000037997961,1.008000047877431,0.0,0.0,0.0,0.0,0.0,1744621048.4685907,9.0, 2025-04-14 09:57:28.468
48.0,-16.988495548721403,4.772112343460321,-37.819738301914185,-74.97377441171557,0.0160000007599592,0.0800000037997961,1.008000047877431,0.0,0.0,0.0,0.0,0.0,1744621048.46872,9.0, 2025-04-14 09:57:28.468
48.0,-9.10478644212708,4.181208150461316,-50.38206225307658,-66.06533271726221,0.0160000007599592,0.0800000037997961,1.008000047877431,0.0,0.0,0.0,0.0,0.0,1744621048.4688096,9.0, 2025-04-14 09:57:28.468
49.0,-9.643332035746424,-2.9133820654824376,-72.1632395950146,-81.81031153071672,0.0160000007599592,0.0800000037997961,1.008000047877431,0.0,0.0,0.0,0.0,0.0,1744621048.4692523,9.0, 2025-04-14 09:57:28.469
49.0,-16.33027315651998,-0.0523585993796587,-53.72553281346336,-79.52523265779018,0.0160000007599592,0.0800000037997961,1.008000047877431,0.0,0.0,0.0,0.0,0.0,1744621048.4693432,9.0, 2025-04-14 09:57:28.469
50.0,-12.900784897152334,0.2991919964551925,-21.44645629590377,-83.893435806036,0.0160000007599592,0.0800000037997961,0.9920000471174716,0.0,0.0,0.0,0.0,0.0,1744621048.470282,9.0, 2025-04-14 09:57:28.470
50.0,-13.383231991436332,1.368803383782506,-14.29202768066898,-78.15268937405199,0.0160000007599592,0.0800000037997961,0.9920000471174716,0.0,0.0,0.0,0.0,0.0,1744621048.4704156,9.0, 2025-04-14 09:57:28.470
51.0,-9.998622531536968,-0.0523585993796587,-20.14871101127937,-90.7150133252144,0.0160000007599592,0.0800000037997961,0.9920000471174716,0.0,0.0,0.0,0.0,0.0,1744621048.4982655,9.0, 2025-04-14 09:57:28.498
51.0,-25.268634050618857,-8.310057701542974,-20.055213512387127,-97.02048465050756,0.0160000007599592,0.0800000037997961,0.9920000471174716,0.0,0.0,0.0,0.0,0.0,1744621048.4984865,9.0, 2025-04-14 09:57:28.498
52.0,-16.049780659843236,-6.619622921571136,-11.81621391000226,-82.03096562810242,0.0160000007599592,0.0800000037997961,0.9920000471174716,0.0,0.0,0.0,0.0,0.0,1744621048.4989035,9.0, 2025-04-14 09:57:28.498
52.0,-8.166071553248912,3.900715653784573,-17.276467845309526,-68.87399758398533,0.0160000007599592,0.0800000037997961,0.9920000471174716,0.0,0.0,0.0,0.0,0.0,1744621048.4989543,9.0, 2025-04-14 09:57:28.498
53.0,-13.622585588600488,3.61274335719645,-28.110958016943187,-95.51704486832024,0.0160000007599592,0.0800000037997961,0.9920000471174716,0.0,0.0,0.0,0.0,0.0,1744621048.5281336,9.0, 2025-04-14 09:57:28.528
53.0,-20.93409000197425,-9.820977283641696,-23.61559827020392,-92.53260470367968,0.0160000007599592,0.0800000037997961,0.9920000471174716,0.0,0.0,0.0,0.0,0.0,1744621048.5282187,9.0, 2025-04-14 09:57:28.528
54.0,-21.255721398163587,-8.235259702429175,-18.555513630155478,-86.84047697111964,0.0160000007599592,0.0800000037997961,0.9920000471174716,0.0,0.0,0.0,0.0,0.0,1744621048.5285645,9.0, 2025-04-14 09:57:28.528
54.0,-19.445609819609672,-1.888649477623403,-6.6626317710615695,-86.61608297377825,0.0160000007599592,0.0800000037997961,0.9920000471174716,0.0,0.0,0.0,0.0,0.0,1744621048.5286045,9.0, 2025-04-14 09:57:28.528
55.0,-20.997668301220983,-8.194120802916586,-21.19214309891686,-87.56975746247917,0.0160000007599592,0.0800000037997961,0.9920000471174716,0.0,0.0,0.0,0.0,0.0,1744621048.5291972,9.0, 2025-04-14 09:57:28.529
55.0,-23.679176569450647,-8.231519802473485,-5.398545586038381,-91.62006911449134,0.0160000007599592,0.0800000037997961,0.9920000471174716,0.0,0.0,0.0,0.0,0.0,1744621048.529322,9.0, 2025-04-14 09:57:28.529
56.0,-28.488687912467867,-11.975159658119082,-2.470203920733184,-91.06282402109356,0.0160000007599592,0.0800000037997961,0.9920000471174716,0.0,0.0,0.0,0.0,0.0,1744621048.530191,9.0, 2025-04-14 09:57:28.530
56.0,-14.29950748058036,-8.411035000346601,-13.241115793120116,-94.46613298077136,0.0160000007599592,0.0800000037997961,0.9920000471174716,0.0,0.0,0.0,0.0,0.0,1744621048.5302944,9.0, 2025-04-14 09:57:28.530
57.0,-11.251489016693084,-4.390642547979951,-21.708249292802066,-70.17548276856542,0.0160000007599592,0.0800000037997961,0.9920000471174716,0.0,0.0,0.0,0.0,0.0,1744621048.5587568,9.0, 2025-04-14 09:57:28.558
57.0,-29.92480949545279,-6.182054626755416,-16.547187353949994,-93.70693328976633,0.0160000007599592,0.0800000037997961,0.9920000471174716,0.0,0.0,0.0,0.0,0.0,1744621048.558848,9.0, 2025-04-14 09:57:28.558
58.0,-27.31435932638124,-3.021839164197445,-7.922978056129068,-80.43402834702283,0.0160000007599592,0.0800000037997961,0.9920000471174716,0.0,0.0,0.0,0.0,0.0,1744621048.5589485,9.0, 2025-04-14 09:57:28.558
58.0,-17.699076540302485,0.0523585993796587,-12.863385897595435,-75.57963820453733,0.0160000007599592,0.0800000037997961,0.9920000471174716,0.0,0.0,0.0,0.0,0.0,1744621048.5589962,9.0, 2025-04-14 09:57:28.558
59.0,-19.55032701836899,-1.3052250845357776,-32.29590606736019,-81.90754892956465,0.0160000007599592,0.0800000037997961,0.9920000471174716,0.0,0.0,0.0,0.0,0.0,1744621048.588726,9.0, 2025-04-14 09:57:28.588
59.0,-28.671943010296676,-5.778145431540906,-25.859538243617862,-73.29081943165511,0.0160000007599592,0.0800000037997961,0.9920000471174716,0.0,0.0,0.0,0.0,0.0,1744621048.5888257,9.0, 2025-04-14 09:57:28.588
60.0,-29.22170830378309,-9.847156583331524,-14.471542878542095,-70.38865706603974,0.0160000007599592,0.0800000037997961,0.9920000471174716,0.0,0.0,0.0,0.0,0.0,1744621048.588963,9.0, 2025-04-14 09:57:28.588
60.0,-18.192743334453557,3.014359364286065,-9.811627533752471,-74.23327422048897,0.0160000007599592,0.0800000037997961,0.9920000471174716,0.0,0.0,0.0,0.0,0.0,1744621048.5890107,9.0, 2025-04-14 09:57:28.589
61.0,-13.03168139560148,-2.139222774654627,-20.186110010836277,-96.07055006176232,0.0160000007599592,0.0800000037997961,0.9920000471174716,0.0,0.0,0.0,0.0,0.0,1744621048.589182,9.0, 2025-04-14 09:57:28.589
61.0,-29.20300880400464,-8.534451698884368,-12.21638320526108,-68.98619458265603,0.0160000007599592,0.0800000037997961,0.9920000471174716,0.0,0.0,0.0,0.0,0.0,1744621048.5892348,9.0, 2025-04-14 09:57:28.589
62.0,-28.881377407815307,-8.717706796713173,-2.657198918517679,-82.56951122172177,0.0160000007599592,0.0800000037997961,0.9920000471174716,0.0,0.0,0.0,0.0,0.0,1744621048.5902045,9.0, 2025-04-14 09:57:28.590
62.0,-20.575059606228024,-5.546271634288132,-7.05532126640901,-86.4103884762153,0.0160000007599592,0.0800000037997961,0.9920000471174716,0.0,0.0,0.0,0.0,0.0,1744621048.5902612,9.0, 2025-04-14 09:57:28.590
63.0,-23.20420927507803,-8.919661394320428,-20.72091570449993,-79.57385135721415,0.0160000007599592,0.0800000037997961,0.9920000471174716,0.0,0.0,0.0,0.0,0.0,1744621048.6188295,9.0, 2025-04-14 09:57:28.618
63.0,-27.99876101827249,-8.758845696225762,-9.8378068334423,-87.03121186885983,0.0160000007599592,0.0800000037997961,0.9920000471174716,0.0,0.0,0.0,0.0,0.0,1744621048.619033,9.0, 2025-04-14 09:57:28.619
64.0,-32.70729506248608,-14.46967292856425,3.8390073045156896,-79.49531345814466,0.0160000007599592,0.0800000037997961,0.9920000471174716,0.0,0.0,0.0,0.0,0.0,1744621048.6191502,9.0, 2025-04-14 09:57:28.619
64.0,-16.543447453994304,-11.313197365961967,8.296968051698059,-81.67567513231188,0.0160000007599592,0.0800000037997961,0.9920000471174716,0.0,0.0,0.0,0.0,0.0,1744621048.619234,9.0, 2025-04-14 09:57:28.619
65.0,-18.36477873241529,-14.327556730248034,-1.4192920331843195,-88.20180055499077,0.0160000007599592,0.0800000037997961,0.9920000471174716,0.0,0.0,0.0,0.0,0.0,1744621048.6481507,9.0, 2025-04-14 09:57:28.648
65.0,-30.889703684020787,-14.177960732020438,2.129873024765402,-93.0861098971218,0.0160000007599592,0.0800000037997961,0.9920000471174716,0.0,0.0,0.0,0.0,0.0,1744621048.6482177,9.0, 2025-04-14 09:57:28.648
66.0,-25.17139665177092,-13.351442841812968,7.077760666143149,-88.47107335180044,0.0160000007599592,0.0800000037997961,0.9920000471174716,0.0,0.0,0.0,0.0,0.0,1744621048.6487556,9.0, 2025-04-14 09:57:28.648
66.0,-12.27996150450781,-1.61563678085804,6.924424767959863,-89.01335884537548,0.0160000007599592,0.0800000037997961,0.9920000471174716,0.0,0.0,0.0,0.0,0.0,1744621048.6488316,9.0, 2025-04-14 09:57:28.648
67.0,-16.999715248588473,-0.3478106958791613,-8.023955354932696,-85.68484788481146,0.0160000007599592,0.0800000037997961,0.9920000471174716,0.0,0.0,0.0,0.0,0.0,1744621048.6494808,9.0, 2025-04-14 09:57:28.649
67.0,-25.825879144016653,-11.825563659891486,-12.403378203045577,-84.51425919868052,0.0160000007599592,0.0800000037997961,0.9920000471174716,0.0,0.0,0.0,0.0,0.0,1744621048.6497571,9.0, 2025-04-14 09:57:28.649
68.0,-23.017214277293533,-6.795398219488561,-8.349326651077718,-84.43572129961103,0.0160000007599592,0.0800000037997961,0.9920000471174716,0.0,0.0,0.0,0.0,0.0,1744621048.6500654,9.0, 2025-04-14 09:57:28.650
68.0,-17.44850324327126,0.8826163895428181,-2.1597922244109213,-110.499084090814,0.0160000007599592,0.0800000037997961,0.9920000471174716,0.0,0.0,0.0,0.0,0.0,1744621048.6501129,9.0, 2025-04-14 09:57:28.650
69.0,-15.90766446152702,-2.3897960716858506,-13.274774892721323,-103.57278937287629,0.0160000007599592,0.0800000037997961,0.9920000471174716,0.0,0.0,0.0,0.0,0.0,1744621048.6781006,9.0, 2025-04-14 09:57:28.678
69.0,-29.281546703074127,-11.462793364189563,-28.260554015170783,-94.53345117997378,0.0160000007599592,0.0800000037997961,0.9920000471174716,0.0,0.0,0.0,0.0,0.0,1744621048.6782024,9.0, 2025-04-14 09:57:28.678
70.0,-20.73587530432269,-5.022685640491545,-31.013120382558554,-87.25934576615691,0.0160000007599592,0.0800000037997961,1.008000047877431,0.0,0.0,0.0,0.0,0.0,1744621048.6789143,9.0, 2025-04-14 09:57:28.678
70.0,-13.289734492544085,1.3762831836938858,-38.8893496892415,-75.68435540329665,0.0160000007599592,0.0800000037997961,1.008000047877431,0.0,0.0,0.0,0.0,0.0,1744621048.6790257,9.0, 2025-04-14 09:57:28.679
71.0,-12.23882260499522,-0.6881415918469429,-52.65592142613605,-80.0749979512766,0.0160000007599592,0.0800000037997961,1.008000047877431,0.0,0.0,0.0,0.0,0.0,1744621048.7083044,9.0, 2025-04-14 09:57:28.708
71.0,-21.14726429944858,-5.725786832161248,-42.90974214160815,-73.27211993187666,0.0160000007599592,0.0800000037997961,1.008000047877431,0.0,0.0,0.0,0.0,0.0,1744621048.708379,9.0, 2025-04-14 09:57:28.708
72.0,-25.762300844769925,-0.6806617919355631,-17.06703344779089,-75.08597141038626,0.0160000007599592,0.0800000037997961,1.008000047877431,0.0,0.0,0.0,0.0,0.0,1744621048.708585,9.0, 2025-04-14 09:57:28.708
72.0,-12.953143496531991,-1.7876721788197756,-7.238576364237815,-76.18924189731479,0.0160000007599592,0.0800000037997961,1.008000047877431,0.0,0.0,0.0,0.0,0.0,1744621048.708645,9.0, 2025-04-14 09:57:28.708
73.0,-24.621631358284503,-2.864763366058469,-14.796914174687116,-94.75410527735949,0.0160000007599592,0.0800000037997961,1.008000047877431,0.0,0.0,0.0,0.0,0.0,1744621048.7092133,9.0, 2025-04-14 09:57:28.709
73.0,-28.58966521127149,-14.047064233571293,-17.47468254296109,-100.21809911262244,0.0160000007599592,0.0800000037997961,1.008000047877431,0.0,0.0,0.0,0.0,0.0,1744621048.7092855,9.0, 2025-04-14 09:57:28.709
74.0,-26.79451323254034,-9.28991148993373,-4.459830697160214,-85.66614838503301,0.0160000007599592,0.0800000037997961,1.008000047877431,0.0,0.0,0.0,0.0,0.0,1744621048.710439,9.0, 2025-04-14 09:57:28.710
74.0,-16.820200050715357,-2.01954597607255,-7.421831462066621,-81.79161203093827,0.0160000007599592,0.0800000037997961,1.008000047877431,0.0,0.0,0.0,0.0,0.0,1744621048.7104957,9.0, 2025-04-14 09:57:28.710
75.0,-20.417983808089048,-8.684047697111964,-18.102985735516995,-88.59449005033821,0.0160000007599592,0.0800000037997961,1.008000047877431,0.0,0.0,0.0,0.0,0.0,1744621048.7383282,9.0, 2025-04-14 09:57:28.738
75.0,-31.6638629748486,-15.127895320765674,-16.865078850183636,-88.01480555720627,0.0160000007599592,0.0800000037997961,1.008000047877431,0.0,0.0,0.0,0.0,0.0,1744621048.7384143,9.0, 2025-04-14 09:57:28.738
76.0,-27.10866482881829,-13.156968044117091,-1.250996535178274,-76.86990368925035,0.0160000007599592,0.0800000037997961,1.008000047877431,0.0,0.0,0.0,0.0,0.0,1744621048.739386,9.0, 2025-04-14 09:57:28.739
76.0,-18.065586735960096,-8.676567897200584,14.29950748058036,-77.00454008765519,0.0160000007599592,0.0800000037997961,1.008000047877431,0.0,0.0,0.0,0.0,0.0,1744621048.7395113,9.0, 2025-04-14 09:57:28.739
77.0,-19.640084617305547,-6.507425922900438,5.652858783025295,-92.88041539955884,0.0160000007599592,0.0800000037997961,1.008000047877431,0.0,0.0,0.0,0.0,0.0,1744621048.768077,9.0, 2025-04-14 09:57:28.768
77.0,-34.89139663660899,-11.470273164100943,8.62981914775446,-106.82276243437082,0.0160000007599592,0.0800000037997961,1.008000047877431,0.0,0.0,0.0,0.0,0.0,1744621048.768193,9.0, 2025-04-14 09:57:28.768
78.0,-22.557206582743675,-14.379915329627693,14.789434374775738,-82.71910721994936,0.0160000007599592,0.0800000037997961,1.008000047877431,0.0,0.0,0.0,0.0,0.0,1744621048.7687273,9.0, 2025-04-14 09:57:28.768
78.0,-14.400484779383987,-4.865609842352569,21.708249292802066,-83.4820468109101,0.0160000007599592,0.0800000037997961,1.008000047877431,0.0,0.0,0.0,0.0,0.0,1744621048.7688613,9.0, 2025-04-14 09:57:28.768
79.0,-25.040500153321773,-5.523832234553993,2.6871181181631982,-95.18419377226382,0.0160000007599592,0.0800000037997961,1.008000047877431,0.0,0.0,0.0,0.0,0.0,1744621048.7691994,9.0, 2025-04-14 09:57:28.769
79.0,-25.76604074472561,-18.07493648584932,-6.520515572745353,-93.40400139335544,0.0160000007599592,0.0800000037997961,1.008000047877431,0.0,0.0,0.0,0.0,0.0,1744621048.7692623,9.0, 2025-04-14 09:57:28.769
80.0,-21.633451293688267,-21.242631748318672,3.076067713554949,-89.82865703571588,0.0160000007599592,0.0800000037997961,0.9920000471174716,0.0,0.0,0.0,0.0,0.0,1744621048.770092,9.0, 2025-04-14 09:57:28.770
80.0,-21.693289692979302,-9.794797983951868,4.8899191920645535,-89.98947273381054,0.0160000007599592,0.0800000037997961,0.9920000471174716,0.0,0.0,0.0,0.0,0.0,1744621048.7701435,9.0, 2025-04-14 09:57:28.770
81.0,-18.806086927186698,-11.68718736153096,-5.3312273868359625,-85.09394369181246,0.0160000007599592,0.0800000037997961,0.9920000471174716,0.0,0.0,0.0,0.0,0.0,1744621048.798049,9.0, 2025-04-14 09:57:28.798
81.0,-24.78992685629055,-19.612035367637876,-9.194544041063637,-108.4234396154061,0.0160000007599592,0.0800000037997961,0.9920000471174716,0.0,0.0,0.0,0.0,0.0,1744621048.7981014,9.0, 2025-04-14 09:57:28.798
82.0,-20.68351670494303,-12.637121950276196,-5.559361284133047,-108.4196997154504,0.0160000007599592,0.0800000037997961,0.9920000471174716,0.0,0.0,0.0,0.0,0.0,1744621048.7988431,9.0, 2025-04-14 09:57:28.798
82.0,-14.909111173357816,-7.936067705973983,-8.457783749792725,-99.18214682489634,0.0160000007599592,0.0800000037997961,0.9920000471174716,0.0,0.0,0.0,0.0,0.0,1744621048.798922,9.0, 2025-04-14 09:57:28.798
83.0,-18.993081924971197,-7.158168515190482,-19.33341282093897,-67.44909570086747,0.0160000007599592,0.0800000037997961,0.9920000471174716,0.0,0.0,0.0,0.0,0.0,1744621048.8280568,9.0, 2025-04-14 09:57:28.828
83.0,-27.920223119203,-5.0526048401370645,-19.14267792319879,-62.43014996033162,0.0160000007599592,0.0800000037997961,0.9920000471174716,0.0,0.0,0.0,0.0,0.0,1744621048.828168,9.0, 2025-04-14 09:57:28.828
84.0,-26.68231623386964,-2.647849168628454,-2.5861408193595707,-56.86143892630935,0.0160000007599592,0.0800000037997961,0.9920000471174716,0.0,0.0,0.0,0.0,0.0,1744621048.8284967,9.0, 2025-04-14 09:57:28.828
84.0,-17.15305114677176,-2.651589068584144,-5.772535581607372,-82.36381672415882,0.0160000007599592,0.0800000037997961,0.9920000471174716,0.0,0.0,0.0,0.0,0.0,1744621048.828552,9.0, 2025-04-14 09:57:28.828
85.0,-14.613659076858312,-7.771512107923627,-18.020707936491817,-99.25694482401012,0.0160000007599592,0.0800000037997961,0.9920000471174716,0.0,0.0,0.0,0.0,0.0,1744621048.8292215,9.0, 2025-04-14 09:57:28.829
85.0,-23.679176569450647,-6.466287023387849,-11.03831471921876,-96.7886108532548,0.0160000007599592,0.0800000037997961,0.9920000471174716,0.0,0.0,0.0,0.0,0.0,1744621048.8293283,9.0, 2025-04-14 09:57:28.829
86.0,-17.706556340213865,-7.434921111911535,4.2055175001733005,-88.24293945450336,0.0160000007599592,0.0800000037997961,0.9920000471174716,0.0,0.0,0.0,0.0,0.0,1744621048.8300912,9.0, 2025-04-14 09:57:28.830
86.0,-12.190203905571252,-3.4444478591904044,-6.610273171681911,-74.30807221960276,0.0160000007599592,0.0800000037997961,0.9920000471174716,0.0,0.0,0.0,0.0,0.0,1744621048.8301668,9.0, 2025-04-14 09:57:28.830
87.0,-11.48710271390155,-5.482693335041404,-16.427510555367917,-80.89777594152838,0.0160000007599592,0.0800000037997961,0.9920000471174716,0.0,0.0,0.0,0.0,0.0,1744621048.857979,9.0, 2025-04-14 09:57:28.857
87.0,-16.76036165142432,-7.64809540938586,-14.340646380092949,-98.968972527422,0.0160000007599592,0.0800000037997961,0.9920000471174716,0.0,0.0,0.0,0.0,0.0,1744621048.858039,9.0, 2025-04-14 09:57:28.858
88.0,-20.31700650928542,-7.23670641425997,-4.8899191920645535,-91.06656392104924,0.0160000007599592,0.0800000037997961,0.9920000471174716,0.0,0.0,0.0,0.0,0.0,1744621048.8586895,9.0, 2025-04-14 09:57:28.858
88.0,-13.319653692189604,-7.894928806461394,1.3444940340705216,-85.35199678875506,0.0160000007599592,0.0800000037997961,0.9920000471174716,0.0,0.0,0.0,0.0,0.0,1744621048.8587315,9.0, 2025-04-14 09:57:28.858
89.0,-13.716083087492734,-3.317291260696948,-7.328333963174373,-94.89248157572,0.0160000007599592,0.0800000037997961,0.9920000471174716,0.0,0.0,0.0,0.0,0.0,1744621048.888116,9.0, 2025-04-14 09:57:28.888
89.0,-27.385417425539345,-15.498145416378977,-5.088133889716119,-93.40026149339974,0.0160000007599592,0.0800000037997961,0.9920000471174716,0.0,0.0,0.0,0.0,0.0,1744621048.8881786,9.0, 2025-04-14 09:57:28.888
90.0,-17.85989223839715,-16.93052709940821,2.5599615196697414,-108.71515181194992,0.0160000007599592,0.0800000037997961,0.9920000471174716,0.0,0.0,0.0,0.0,0.0,1744621048.8885524,9.0, 2025-04-14 09:57:28.888
90.0,-7.163778365124017,-11.384255465120075,-1.3108349344693124,-82.93976131733507,0.0160000007599592,0.0800000037997961,0.9920000471174716,0.0,0.0,0.0,0.0,0.0,1744621048.8886583,9.0, 2025-04-14 09:57:28.888
91.0,-12.960623296443371,-10.198707179166377,-10.331473627593368,-95.97705256287009,0.0160000007599592,0.0800000037997961,0.9920000471174716,0.0,0.0,0.0,0.0,0.0,1744621048.8892324,9.0, 2025-04-14 09:57:28.889
91.0,-28.686902610119432,-14.87358212377876,-5.649118883069605,-96.09298946149649,0.0160000007599592,0.0800000037997961,0.9920000471174716,0.0,0.0,0.0,0.0,0.0,1744621048.889286,9.0, 2025-04-14 09:57:28.889
